Timer,Wind_Voltage (mV),Temp_Voltage (mV)
2,754.00
2,705.00
2,740.00
2,733.00
2,736.00
2,753.00
2,758.00
2,739.00
2,738.00
6,782.00
16,710.00
28,730.00
39,714.00
51,737.00
62,731.00
73,720.00
85,736.00
96,741.00
108,714.00
120,747.00
133,725.00
145,737.00
158,716.00
170,744.00
183,728.00
195,741.00
208,734.00
220,746.00
233,722.00
245,743.00
258,738.00
270,738.00
283,718.00
295,748.00
307,736.00
320,743.00
332,739.00
345,744.00
357,719.00
370,742.00
382,746.00
395,730.00
407,721.00
420,743.00
432,726.00
445,741.00
457,743.00
470,745.00
482,726.00
495,744.00
507,741.00
520,737.00
532,726.00
545,738.00
557,744.00
570,746.00
582,738.00
595,748.00
607,727.00
619,743.00
632,744.00
644,736.00
657,719.00
669,744.00
682,738.00
694,737.00
707,746.00
719,738.00
732,724.00
744,743.00
757,738.00
769,729.00
782,733.00
794,736.00
807,774.00
819,723.00
832,742.00
844,732.00
857,729.00
869,744.00
882,741.00
894,722.00
907,733.00
919,735.00
931,738.00
944,726.00
956,752.00
969,738.00
981,729.00
994,744.00
1006,738.00
1020,727.00
1033,740.00
1047,736.00
1060,725.00
1074,726.00
1087,717.00
1101,707.00
1115,738.00
1128,726.00
1142,704.00
1155,740.00
1169,721.00
1182,737.00
1196,765.00
1209,749.00
1223,775.00
1236,738.00
1250,736.00
1263,756.00
1277,716.00
1290,748.00
1304,743.00
1317,709.00
1331,769.00
1344,739.00
1358,702.00
1371,751.00
1385,737.00
1398,731.00
1412,742.00
1425,738.00
1439,726.00
1453,726.00
1466,513.00
1480,737.00
1493,745.00
1507,738.00
1520,744.00
1534,745.00
1547,758.00
1561,729.00
1574,715.00
1588,720.00
1601,705.00
1615,749.00
1628,737.00
1642,699.00
1655,734.00
1669,733.00
1682,727.00
1696,783.00
1709,736.00
1723,751.00
1736,737.00
1750,755.00
1763,762.00
1777,718.00
1791,738.00
1804,741.00
1818,714.00
1831,788.00
1845,738.00
1858,710.00
1872,745.00
1885,744.00
1899,767.00
1912,745.00
1926,723.00
1939,727.00
1953,734.00
1966,796.00
1980,736.00
1993,750.00
2007,736.00
2020,730.00
2034,772.00
2047,745.00
2061,726.00
2074,746.00
2088,738.00
2101,712.00
2115,719.00
2129,743.00
2142,696.00
2156,724.00
2169,744.00
2183,716.00
2196,666.00
2210,732.00
2223,742.00
2237,743.00
2250,740.00
2264,741.00
2277,725.00
2291,735.00
2304,740.00
2318,722.00
2331,793.00
2345,732.00
2358,705.00
2372,738.00
2385,747.00
2399,773.00
2412,744.00
2426,731.00
2439,733.00
2453,757.00
2467,642.00
2480,728.00
2494,759.00
2507,743.00
2521,734.00
2534,745.00
2548,750.00
2561,767.00
2575,732.00
2588,743.00
2602,713.00
2615,725.00
2629,731.00
2642,711.00
2656,730.00
2669,739.00
2683,703.00
2696,798.00
2710,741.00
2723,744.00
2737,739.00
2750,727.00
2764,758.00
2777,738.00
2791,749.00
2805,750.00
2818,718.00
2832,843.00
2845,727.00
2859,716.00
2872,735.00
2886,733.00
2899,707.00
2913,735.00
2926,733.00
2940,745.00
2953,758.00
2967,737.00
2980,728.00
2994,737.00
3007,740.00
3021,725.00
3034,739.00
3048,730.00
3061,733.00
3075,742.00
3088,755.00
3102,713.00
3115,718.00
3129,744.00
3143,705.00
3156,788.00
3170,758.00
3183,704.00
3197,731.00
3210,716.00
3224,720.00
3237,730.00
3251,739.00
3264,738.00
3278,749.00
3291,737.00
3305,745.00
3318,715.00
3332,740.00
3345,777.00
3359,710.00
3372,762.00
3386,742.00
3399,708.00
3413,734.00
3426,729.00
3440,720.00
3453,744.00
3467,732.00
3481,736.00
3494,736.00
3508,742.00
3521,739.00
3535,746.00
3548,736.00
3562,730.00
3575,761.00
3589,716.00
3602,714.00
3616,724.00
3629,745.00
3643,703.00
3656,726.00
3670,738.00
3683,694.00
3697,722.00
3710,729.00
3724,725.00
3737,747.00
3751,780.00
3764,739.00
3778,731.00
3791,729.00
3805,749.00
3819,661.00
3832,735.00
3846,737.00
3859,710.00
3873,769.00
3886,735.00
3900,707.00
3913,750.00
3927,734.00
3940,720.00
3954,741.00
3967,735.00
3981,726.00
3994,734.00
4008,729.00
4021,724.00
4035,751.00
4048,740.00
4062,732.00
4075,774.00
4089,739.00
4102,732.00
4116,712.00
4129,738.00
4143,698.00
4157,725.00
4170,766.00
4184,699.00
4197,717.00
4211,735.00
4224,710.00
4238,722.00
4251,700.00
4265,730.00
4278,736.00
4292,734.00
4305,744.00
4319,722.00
4332,731.00
4346,754.00
4359,708.00
4373,717.00
4386,732.00
4400,707.00
4413,721.00
4427,742.00
4440,713.00
4454,741.00
4467,738.00
4481,511.00
4495,740.00
4508,740.00
4522,733.00
4535,750.00
4549,737.00
4562,735.00
4576,737.00
4589,739.00
4603,741.00
4616,731.00
4630,735.00
4643,720.00
4657,727.00
4670,741.00
4684,703.00
4697,728.00
4711,736.00
4724,704.00
4738,713.00
4751,734.00
4765,730.00
4778,734.00
4792,738.00
4805,723.00
4819,730.00
4833,748.00
4846,729.00
4860,716.00
4873,742.00
4887,741.00
4900,710.00
4914,757.00
4927,741.00
4941,710.00
4954,740.00
4968,751.00
4981,560.00
4995,737.00
5008,732.00
5022,725.00
5035,722.00
5049,750.00
5062,730.00
5076,741.00
5089,736.00
5103,744.00
5116,743.00
5130,705.00
5143,701.00
5157,714.00
5171,755.00
5184,700.00
5198,727.00
5211,732.00
5225,701.00
5238,780.00
5252,735.00
5265,729.00
5279,749.00
5292,739.00
5306,739.00
5319,725.00
5333,745.00
5346,731.00
5360,717.00
5373,733.00
5387,768.00
5400,708.00
5414,727.00
5427,731.00
5441,710.00
5454,741.00
5468,744.00
5481,792.00
5495,745.00
5509,732.00
5522,728.00
5536,741.00
5549,780.00
5563,728.00
5576,745.00
5590,736.00
5603,737.00
5617,756.00
5630,729.00
5644,717.00
5657,711.00
5671,725.00
5684,757.00
5698,727.00
5711,735.00
5725,698.00
5738,736.00
5752,763.00
5765,742.00
5779,733.00
5792,730.00
5806,763.00
5819,766.00
5833,736.00
5847,750.00
5860,721.00
5874,750.00
5887,727.00
5901,714.00
5914,740.00
5928,734.00
5941,703.00
5955,738.00
5968,735.00
5982,709.00
5995,727.00
6009,724.00
6022,717.00
6036,731.00
6049,744.00
6063,726.00
6076,758.00
6090,804.00
6103,736.00
6117,737.00
6130,728.00
6144,722.00
6157,727.00
6171,739.00
6185,690.00
6198,725.00
6212,735.00
6225,681.00
6239,700.00
6252,717.00
6266,702.00
6279,730.00
6293,736.00
6306,723.00
6320,747.00
6333,758.00
6347,738.00
6360,712.00
6374,721.00
6387,746.00
6401,674.00
6414,737.00
6428,743.00
6441,702.00
6455,747.00
6468,749.00
6482,710.00
6495,785.00
6509,728.00
6523,724.00
6536,753.00
6550,735.00
6563,715.00
6577,741.00
6590,746.00
6604,747.00
6617,737.00
6631,743.00
6644,733.00
6658,737.00
6671,751.00
6685,709.00
6698,734.00
6712,623.00
6725,698.00
6739,730.00
6752,739.00
6766,707.00
6779,736.00
6793,729.00
6806,720.00
6820,744.00
6833,761.00
6847,737.00
6861,750.00
6874,753.00
6888,741.00
6901,753.00
6915,740.00
6928,739.00
6942,709.00
6955,742.00
6969,729.00
6982,713.00
6996,759.00
7009,745.00
7023,729.00
7036,747.00
7050,736.00
7063,724.00
7077,744.00
7090,736.00
7104,729.00
7117,735.00
7131,740.00
7144,709.00
7158,740.00
7171,738.00
7185,713.00
7199,735.00
7212,726.00
7226,702.00
7239,727.00
7253,745.00
7266,700.00
7280,745.00
7293,730.00
7307,730.00
7320,738.00
7334,732.00
7347,737.00
7361,762.00
7374,739.00
7388,758.00
7401,712.00
7415,738.00
7428,725.00
7442,706.00
7455,765.00
7469,703.00
7482,707.00
7496,740.00
7509,728.00
7523,740.00
7537,737.00
7550,730.00
7564,725.00
7577,749.00
7591,761.00
7604,721.00
7618,741.00
7631,719.00
7645,732.00
7658,747.00
7672,716.00
7685,724.00
7699,721.00
7712,739.00
7726,698.00
7739,729.00
7753,733.00
7766,716.00
7780,726.00
7793,739.00
7807,722.00
7820,736.00
7834,719.00
7847,716.00
7861,743.00
7875,734.00
7888,740.00
7902,720.00
7915,736.00
7929,742.00
7942,709.00
7956,759.00
7969,750.00
7983,801.00
7996,740.00
8010,698.00
8023,723.00
8037,753.00
8050,736.00
8064,729.00
8077,729.00
8091,734.00
8104,728.00
8118,742.00
8131,737.00
8145,757.00
8158,727.00
8172,657.00
8185,727.00
8199,720.00
8213,740.00
8226,709.00
8240,724.00
8253,740.00
8267,538.00
8280,732.00
8294,734.00
8307,714.00
8321,749.00
8334,775.00
8348,732.00
8361,740.00
8375,733.00
8388,736.00
8402,724.00
8415,739.00
8429,749.00
8442,774.00
8456,746.00
8469,766.00
8483,713.00
8496,765.00
8510,748.00
8523,723.00
8537,713.00
8551,776.00
8564,736.00
8578,742.00
8591,734.00
8605,739.00
8618,776.00
8632,739.00
8645,737.00
8659,748.00
8672,742.00
8686,733.00
8699,731.00
8713,746.00
8726,715.00
8740,722.00
8753,740.00
8767,701.00
8780,725.00
8794,751.00
8807,706.00
8821,736.00
8834,768.00
8848,738.00
8861,743.00
8875,737.00
8889,719.00
8902,734.00
8916,737.00
8929,729.00
8943,738.00
8956,738.00
8970,732.00
8983,710.00
8997,742.00
9010,740.00
9024,714.00
9037,741.00
9051,729.00
9064,721.00
9078,742.00
9091,735.00
9105,720.00
9118,317.00
9132,755.00
9145,727.00
9159,742.00
9172,736.00
9186,744.00
9199,738.00
9213,730.00
9227,711.00
9240,715.00
9254,742.00
9267,701.00
9281,716.00
9294,739.00
9308,698.00
9321,751.00
9335,733.00
9348,734.00
9362,739.00
9375,731.00
9389,729.00
9402,797.00
9416,735.00
9429,737.00
9443,710.00
9456,735.00
9470,727.00
9483,731.00
9497,738.00
9510,732.00
9524,706.00
9537,745.00
9551,729.00
9565,714.00
9578,737.00
9592,721.00
9605,718.00
9619,737.00
9632,735.00
9646,707.00
9659,737.00
9673,755.00
9686,736.00
9700,741.00
9713,741.00
9727,723.00
9740,720.00
9754,822.00
9767,702.00
9781,730.00
9794,734.00
9808,696.00
9821,758.00
9835,734.00
9848,708.00
9862,730.00
9875,735.00
9889,740.00
9903,733.00
9916,700.00
9930,748.00
9943,718.00
9957,714.00
9970,721.00
9984,708.00
9997,767.00
10011,737.00
10025,714.00
10040,804.00
10054,739.00
10069,723.00
10083,734.00
10098,743.00
10113,742.00
10127,743.00
10142,698.00
10156,812.00
10171,746.00
10185,724.00
10200,745.00
10215,736.00
10229,720.00
10244,771.00
10258,738.00
10273,712.00
10287,766.00
10302,738.00
10316,719.00
10331,740.00
10346,741.00
10360,746.00
10375,731.00
10389,768.00
10404,737.00
10418,743.00
10433,689.00
10447,729.00
10462,732.00
10477,719.00
10491,740.00
10506,738.00
10520,723.00
10535,753.00
10549,741.00
10564,782.00
10579,738.00
10593,740.00
10608,708.00
10622,750.00
10637,730.00
10651,739.00
10666,732.00
10680,740.00
10695,737.00
10710,754.00
10724,701.00
10739,729.00
10753,717.00
10768,718.00
10782,761.00
10797,752.00
10811,733.00
10826,740.00
10841,746.00
10855,734.00
10870,741.00
10884,739.00
10899,700.00
10913,748.00
10928,737.00
10943,715.00
10957,735.00
10972,727.00
10986,762.00
11001,731.00
11015,711.00
11030,795.00
11044,723.00
11059,704.00
11074,714.00
11088,740.00
11103,743.00
11117,773.00
11132,735.00
11146,728.00
11161,733.00
11175,732.00
11190,720.00
11205,746.00
11219,739.00
11234,737.00
11248,752.00
11263,750.00
11277,741.00
11292,737.00
11307,724.00
11321,735.00
11336,768.00
11350,707.00
11365,728.00
11379,768.00
11394,736.00
11408,755.00
11423,793.00
11438,755.00
11452,736.00
11467,739.00
11481,750.00
11496,739.00
11510,733.00
11525,711.00
11539,740.00
11554,518.00
11569,745.00
11583,735.00
11598,762.00
11612,742.00
11627,751.00
11641,717.00
11656,724.00
11671,744.00
11685,727.00
11700,736.00
11714,729.00
11729,732.00
11743,738.00
11758,765.00
11772,713.00
11787,754.00
11802,733.00
11816,712.00
11831,738.00
11845,791.00
11860,724.00
11874,758.00
11889,726.00
11903,734.00
11918,734.00
11933,712.00
11947,715.00
11962,738.00
11976,716.00
11991,741.00
12005,737.00
12020,759.00
12035,727.00
12049,738.00
12064,723.00
12078,742.00
12093,745.00
12107,693.00
12122,737.00
12136,733.00
12151,724.00
12166,730.00
12180,737.00
12195,736.00
12209,721.00
12224,694.00
12238,750.00
12253,738.00
12267,712.00
12282,713.00
12297,737.00
12311,730.00
12326,738.00
12340,730.00
12355,746.00
12369,757.00
12384,735.00
12399,711.00
12413,749.00
12428,763.00
12442,709.00
12457,740.00
12471,727.00
12486,734.00
12500,733.00
12515,718.00
12530,793.00
12544,735.00
12559,702.00
12573,717.00
12588,747.00
12602,754.00
12617,746.00
12631,763.00
12646,728.00
12661,787.00
12675,735.00
12690,712.00
12704,740.00
12719,876.00
12733,707.00
12748,745.00
12763,750.00
12777,733.00
12792,755.00
12806,763.00
12821,729.00
12835,740.00
12850,707.00
12864,726.00
12879,750.00
12894,733.00
12908,747.00
12923,730.00
12937,753.00
12952,743.00
12966,739.00
12981,720.00
12995,736.00
13010,742.00
13025,709.00
13039,741.00
13054,738.00
13068,719.00
13083,734.00
13097,738.00
13112,720.00
13127,738.00
13141,701.00
13156,730.00
13170,781.00
13185,722.00
13199,728.00
13214,742.00
13228,738.00
13243,748.00
13258,795.00
13272,725.00
13287,748.00
13301,719.00
13316,719.00
13330,744.00
13345,737.00
13359,717.00
13374,738.00
13389,732.00
13403,741.00
13418,748.00
13432,705.00
13447,736.00
13461,735.00
13476,707.00
13491,723.00
13505,740.00
13520,731.00
13534,736.00
13549,735.00
13563,735.00
13578,741.00
13592,733.00
13607,708.00
13622,727.00
13636,735.00
13651,715.00
13665,737.00
13680,722.00
13694,733.00
13709,739.00
13723,717.00
13738,732.00
13753,731.00
13767,688.00
13782,710.00
13796,739.00
13811,722.00
13825,755.00
13840,733.00
13855,725.00
13869,654.00
13884,728.00
13898,716.00
13913,743.00
13927,649.00
13942,711.00
13956,772.00
13971,736.00
13986,738.00
14000,733.00
14015,727.00
14029,740.00
14044,735.00
14058,688.00
14073,719.00
14087,752.00
14102,729.00
14117,741.00
14131,752.00
14146,722.00
14160,739.00
14175,733.00
14189,714.00
14204,745.00
14219,734.00
14233,712.00
14248,735.00
14262,728.00
14277,733.00
14291,739.00
14306,738.00
14320,725.00
14335,716.00
14350,700.00
14364,722.00
14379,711.00
14393,713.00
14408,730.00
14422,733.00
14437,719.00
14451,766.00
14466,748.00
14481,724.00
14495,740.00
14510,720.00
14524,698.00
14539,746.00
14553,743.00
14568,717.00
14583,733.00
14597,723.00
14612,737.00
14626,740.00
14641,700.00
14655,750.00
14670,740.00
14684,709.00
14699,710.00
14714,746.00
14728,726.00
14743,743.00
14757,744.00
14772,734.00
14786,740.00
14801,726.00
14815,856.00
14830,749.00
14845,749.00
14859,713.00
14874,743.00
14888,736.00
14903,735.00
14917,730.00
14932,712.00
14947,728.00
14961,729.00
14976,702.00
14990,718.00
15005,736.00
15019,740.00
15034,741.00
15048,762.00
15063,726.00
15078,578.00
15092,737.00
15107,705.00
15121,737.00
15136,750.00
15150,720.00
15165,718.00
15179,747.00
15194,736.00
15209,763.00
15223,743.00
15238,750.00
15252,742.00
15267,703.00
15281,722.00
15296,722.00
15311,738.00
15325,745.00
15340,734.00
15354,712.00
15369,738.00
15383,732.00
15398,677.00
15412,755.00
15427,741.00
15442,709.00
15456,740.00
15471,738.00
15485,712.00
15500,740.00
15514,727.00
15529,822.00
15543,738.00
15558,696.00
15573,726.00
15587,731.00
15602,725.00
15616,739.00
15631,736.00
15645,733.00
15660,734.00
15675,713.00
15689,725.00
15704,739.00
15718,713.00
15733,711.00
15747,755.00
15762,738.00
15776,719.00
15791,719.00
15806,735.00
15820,733.00
15835,736.00
15849,703.00
15864,731.00
15878,739.00
15893,719.00
15907,752.00
15922,754.00
15937,743.00
15951,743.00
15966,719.00
15980,719.00
15995,738.00
16009,720.00
16024,770.00
16039,734.00
16053,734.00
16068,713.00
16082,744.00
16097,728.00
16111,740.00
16126,735.00
16140,712.00
16155,731.00
16170,775.00
16184,706.00
16199,716.00
16213,794.00
16228,751.00
16242,731.00
16257,736.00
16271,728.00
16286,749.00
16301,750.00
16315,714.00
16330,784.00
16344,723.00
16359,711.00
16373,749.00
16388,734.00
16403,736.00
16417,739.00
16432,732.00
16446,729.00
16461,735.00
16475,700.00
16490,732.00
16504,746.00
16519,739.00
16534,813.00
16548,738.00
16563,722.00
16577,742.00
16592,730.00
16606,722.00
16621,819.00
16635,725.00
16650,712.00
16665,742.00
16679,746.00
16694,744.00
16708,733.00
16723,734.00
16737,752.00
16752,725.00
16767,699.00
16781,724.00
16796,762.00
16810,730.00
16825,735.00
16839,738.00
16854,797.00
16868,737.00
16883,738.00
16898,725.00
16912,740.00
16927,730.00
16941,709.00
16956,745.00
16970,733.00
16985,716.00
16999,760.00
17014,740.00
17029,737.00
17043,790.00
17058,695.00
17072,726.00
17087,741.00
17101,711.00
17116,709.00
17131,764.00
17145,738.00
17160,767.00
17174,669.00
17189,732.00
17203,753.00
17218,733.00
17232,711.00
17247,739.00
17262,759.00
17276,718.00
17291,734.00
17305,716.00
17320,756.00
17334,745.00
17349,710.00
17363,728.00
17378,748.00
17393,711.00
17407,715.00
17422,740.00
17436,729.00
17451,717.00
17465,731.00
17480,728.00
17495,802.00
17509,724.00
17524,715.00
17538,738.00
17553,736.00
17567,717.00
17582,737.00
17596,747.00
17611,740.00
17626,724.00
17640,697.00
17655,730.00
17669,741.00
17684,661.00
17698,720.00
17713,842.00
17727,733.00
17742,746.00
17757,749.00
17771,734.00
17786,748.00
17800,731.00
17815,724.00
17829,734.00
17844,738.00
17859,710.00
17873,721.00
17888,739.00
17902,741.00
17917,733.00
17931,602.00
17946,735.00
17960,734.00
17975,694.00
17990,722.00
18004,738.00
18019,742.00
18033,745.00
18048,735.00
18062,717.00
18077,738.00
18091,727.00
18106,726.00
18121,774.00
18135,743.00
18150,705.00
18164,740.00
18179,616.00
18193,718.00
18208,745.00
18223,739.00
18237,734.00
18252,713.00
18266,710.00
18281,723.00
18295,739.00
18310,712.00
18324,744.00
18339,750.00
18354,733.00
18368,795.00
18383,737.00
18397,711.00
18412,742.00
18426,754.00
18441,687.00
18455,738.00
18470,741.00
18485,711.00
18499,734.00
18514,731.00
18528,737.00
18543,732.00
18557,709.00
18572,747.00
18587,745.00
18601,708.00
18616,708.00
18630,747.00
18645,750.00
18659,751.00
18674,763.00
18688,730.00
18703,743.00
18718,733.00
18732,716.00
18747,742.00
18761,744.00
18776,711.00
18790,760.00
18805,748.00
18819,756.00
18834,733.00
18849,727.00
18863,771.00
18878,745.00
18892,703.00
18907,715.00
18921,746.00
18936,736.00
18951,747.00
18965,742.00
18980,730.00
18994,764.00
19009,734.00
19023,738.00
19038,734.00
19052,749.00
19067,715.00
19082,746.00
19096,732.00
19111,744.00
19125,740.00
19140,741.00
19154,730.00
19169,731.00
19183,704.00
19198,737.00
19213,729.00
19227,722.00
19242,746.00
19256,735.00
19271,721.00
19285,760.00
19300,730.00
19315,721.00
19329,736.00
19344,739.00
19358,704.00
19373,735.00
19387,708.00
19402,730.00
19416,739.00
19431,736.00
19446,736.00
19460,753.00
19475,698.00
19489,736.00
19504,745.00
19518,724.00
19533,731.00
19547,764.00
19562,736.00
19577,756.00
19591,738.00
19606,728.00
19620,736.00
19635,747.00
19649,712.00
19664,745.00
19679,743.00
19693,722.00
19708,743.00
19722,736.00
19737,741.00
19751,730.00
19766,727.00
19780,731.00
19795,749.00
19810,707.00
19824,744.00
19839,742.00
19853,752.00
19868,785.00
19882,743.00
19897,729.00
19911,771.00
19926,732.00
19941,712.00
19955,776.00
19970,751.00
19984,713.00
19999,740.00
20013,734.00
20028,750.00
20043,739.00
20057,724.00
20072,731.00
20086,750.00
20101,717.00
20115,721.00
20130,738.00
20144,727.00
20159,758.00
20174,736.00
20188,726.00
20203,732.00
20217,750.00
20232,716.00
20246,531.00
20261,751.00
20275,715.00
20290,733.00
20305,718.00
20319,768.00
20334,733.00
20348,707.00
20363,735.00
20377,721.00
20392,697.00
20407,722.00
20421,784.00
20436,723.00
20450,746.00
20465,743.00
20479,698.00
20494,742.00
20508,733.00
20523,728.00
20538,711.00
20552,755.00
20567,706.00
20581,737.00
20596,767.00
20610,752.00
20625,740.00
20639,744.00
20654,741.00
20669,763.00
20683,702.00
20698,725.00
20712,742.00
20727,725.00
20741,707.00
20756,739.00
20771,748.00
20785,756.00
20800,735.00
20814,645.00
20829,750.00
20843,731.00
20858,707.00
20872,399.00
20887,778.00
20902,715.00
20916,722.00
20931,744.00
20945,755.00
20960,736.00
20974,699.00
20989,697.00
21003,759.00
21018,706.00
21033,725.00
21047,763.00
21062,729.00
21076,745.00
21091,772.00
21105,748.00
21120,642.00
21135,728.00
21149,714.00
21164,708.00
21178,749.00
21193,712.00
21207,737.00
21222,750.00
21236,723.00
21251,733.00
21266,719.00
21280,739.00
21295,734.00
21309,703.00
21324,717.00
21338,744.00
21353,742.00
21367,747.00
21382,785.00
21397,757.00
21411,740.00
21426,735.00
21440,717.00
21455,766.00
21469,743.00
21484,714.00
21499,746.00
21513,754.00
21528,730.00
21542,748.00
21557,739.00
21571,713.00
21586,753.00
21600,701.00
21615,724.00
21630,761.00
21644,734.00
21659,745.00
21673,746.00
21688,738.00
21702,753.00
21717,742.00
21731,728.00
21746,729.00
21761,732.00
21775,705.00
21790,746.00
21804,751.00
21819,723.00
21833,329.00
21848,746.00
21863,722.00
21877,736.00
21892,664.00
21906,733.00
21921,735.00
21935,720.00
21950,686.00
21964,758.00
21979,734.00
21994,743.00
22008,738.00
22023,733.00
22037,743.00
22052,724.00
22066,715.00
22081,740.00
22095,722.00
22110,719.00
22125,735.00
22139,753.00
22154,738.00
22168,735.00
22183,704.00
22197,740.00
22212,740.00
22227,712.00
22241,724.00
22256,731.00
22270,737.00
22285,543.00
22299,731.00
22314,731.00
22328,743.00
22343,804.00
22358,705.00
22372,745.00
22387,740.00
22401,746.00
22416,744.00
22430,739.00
22445,741.00
22459,754.00
22474,712.00
22489,730.00
22503,731.00
22518,705.00
22532,721.00
22547,722.00
22561,722.00
22576,718.00
22591,754.00
22605,729.00
22620,736.00
22634,736.00
22649,720.00
22663,743.00
22678,728.00
22692,706.00
22707,747.00
22722,735.00
22736,794.00
22751,731.00
22765,734.00
22780,721.00
22794,717.00
22809,688.00
22823,719.00
22838,746.00
22853,729.00
22867,739.00
22882,723.00
22896,703.00
22911,745.00
22925,729.00
22940,720.00
22955,735.00
22969,738.00
22984,712.00
22998,738.00
23013,771.00
23027,730.00
23042,730.00
23056,733.00
23071,734.00
23086,736.00
23100,695.00
23115,722.00
23129,733.00
23144,721.00
23158,739.00
23173,739.00
23187,721.00
23202,725.00
23217,718.00
23231,725.00
23246,767.00
23260,743.00
23275,700.00
23289,742.00
23304,745.00
23319,702.00
23333,742.00
23348,732.00
23362,735.00
23377,705.00
23391,695.00
23406,706.00
23420,789.00
23435,697.00
23450,697.00
23464,734.00
23479,732.00
23493,720.00
23508,724.00
23522,731.00
23537,738.00
23551,716.00
23566,712.00
23581,735.00
23595,751.00
23610,708.00
23624,736.00
23639,516.00
23653,734.00
23668,743.00
23683,718.00
23697,785.00
23712,734.00
23726,699.00
23741,713.00
23755,727.00
23770,748.00
23784,734.00
23799,733.00
23814,726.00
23828,725.00
23843,730.00
23857,716.00
23872,743.00
23886,729.00
23901,712.00
23915,732.00
23930,738.00
23945,725.00
23959,734.00
23974,732.00
23988,719.00
24003,733.00
24017,698.00
24032,746.00
24047,742.00
24061,724.00
24076,745.00
24090,743.00
24105,754.00
24119,732.00
24134,730.00
24148,716.00
24163,774.00
24178,732.00
24192,831.00
24207,738.00
24221,754.00
24236,725.00
24250,783.00
24265,745.00
24279,747.00
24294,733.00
24309,696.00
24323,746.00
24338,745.00
24352,717.00
24367,740.00
24381,758.00
24396,725.00
24411,736.00
24425,733.00
24440,728.00
24454,738.00
24469,773.00
24483,693.00
24498,734.00
24512,734.00
24527,706.00
24542,718.00
24556,732.00
24571,732.00
24585,732.00
24600,693.00
24614,722.00
24629,778.00
24643,699.00
24658,712.00
24673,732.00
24687,753.00
24702,727.00
24716,731.00
24731,720.00
24745,742.00
24760,768.00
24775,708.00
24789,737.00
24804,739.00
24818,712.00
24833,737.00
24847,686.00
24862,765.00
24876,724.00
24891,723.00
24906,813.00
24920,738.00
24935,718.00
24949,714.00
24964,735.00
24978,740.00
24993,746.00
25007,732.00
25022,734.00
25037,740.00
25051,739.00
25066,705.00
25080,784.00
25095,736.00
25109,704.00
25124,752.00
25139,735.00
25153,738.00
25168,730.00
25182,748.00
25197,735.00
25211,747.00
25226,703.00
25240,729.00
25255,733.00
25270,731.00
25284,745.00
25299,747.00
25313,723.00
25328,743.00
25342,794.00
25357,733.00
25371,768.00
25386,737.00
25401,685.00
25415,744.00
25430,729.00
25444,730.00
25459,731.00
25473,739.00
25488,733.00
25503,740.00
25517,695.00
25532,716.00
25546,737.00
25561,771.00
25575,741.00
25590,634.00
25604,728.00
25619,748.00
25634,727.00
25648,730.00
25663,766.00
25677,724.00
25692,716.00
25706,729.00
25721,737.00
25735,718.00
25750,754.00
25765,726.00
25779,736.00
25794,744.00
25808,706.00
25823,728.00
25837,591.00
25852,710.00
25867,731.00
25881,721.00
25896,756.00
25910,741.00
25925,734.00
25939,728.00
25954,742.00
25968,767.00
25983,709.00
25998,742.00
26012,749.00
26027,706.00
26041,740.00
26056,737.00
26070,734.00
26085,758.00
26099,722.00
26114,728.00
26129,738.00
26143,700.00
26158,719.00
26172,783.00
26187,733.00
26201,752.00
26216,736.00
26231,702.00
26245,739.00
26260,716.00
26274,718.00
26289,736.00
26303,709.00
26318,713.00
26332,738.00
26347,746.00
26362,739.00
26376,735.00
26391,765.00
26405,725.00
26420,706.00
26434,703.00
26449,737.00
26463,736.00
26478,737.00
26493,743.00
26507,773.00
26522,756.00
26536,748.00
26551,735.00
26565,755.00
26580,771.00
26595,728.00
26609,710.00
26624,750.00
26638,766.00
26653,732.00
26667,746.00
26682,723.00
26696,725.00
26711,735.00
26726,699.00
26740,719.00
26755,780.00
26769,714.00
26784,737.00
26798,743.00
26813,732.00
26827,752.00
26842,716.00
26857,709.00
26871,737.00
26886,727.00
26900,709.00
26915,720.00
26929,720.00
26944,722.00
26959,727.00
26973,749.00
26988,746.00
27002,734.00
27017,806.00
27031,738.00
27046,780.00
27060,707.00
27075,751.00
27090,730.00
27104,736.00
27119,743.00
27133,750.00
27148,722.00
27162,736.00
27177,732.00
27191,707.00
27206,759.00
27221,739.00
27235,782.00
27250,728.00
27264,734.00
27279,745.00
27293,748.00
27308,735.00
27323,727.00
27337,739.00
27352,705.00
27366,711.00
27381,778.00
27395,865.00
27410,784.00
27424,740.00
27439,729.00
27454,721.00
27468,718.00
27483,719.00
27497,743.00
27512,784.00
27526,707.00
27541,742.00
27555,721.00
27570,735.00
27585,739.00
27599,735.00
27614,741.00
27628,735.00
27643,702.00
27657,729.00
27672,740.00
27687,724.00
27701,745.00
27716,793.00
27730,739.00
27745,740.00
27759,739.00
27774,722.00
27788,759.00
27803,736.00
27818,714.00
27832,736.00
27847,745.00
27861,723.00
27876,741.00
27890,761.00
27905,727.00
27919,736.00
27934,704.00
27949,731.00
27963,725.00
27978,715.00
27992,748.00
28007,758.00
28021,738.00
28036,743.00
28051,723.00
28065,728.00
28080,741.00
28094,662.00
28109,707.00
28123,754.00
28138,735.00
28152,715.00
28167,726.00
28182,749.00
28196,759.00
28211,737.00
28225,710.00
28240,732.00
28254,814.00
28269,710.00
28283,733.00
28298,743.00
28313,741.00
28327,763.00
28342,741.00
28356,717.00
28371,734.00
28385,730.00
28400,707.00
28415,738.00
28429,743.00
28444,714.00
28458,745.00
28473,770.00
28487,730.00
28502,739.00
28516,727.00
28531,727.00
28546,767.00
28560,688.00
28575,784.00
28589,747.00
28604,745.00
28618,746.00
28633,761.00
28647,738.00
28662,763.00
28677,732.00
28691,706.00
28706,728.00
28720,759.00
28735,711.00
28749,750.00
28764,748.00
28779,733.00
28793,769.00
28808,713.00
28822,736.00
28837,731.00
28851,699.00
28866,716.00
28880,743.00
28895,725.00
28910,750.00
28924,745.00
28939,732.00
28953,807.00
28968,714.00
28982,723.00
28997,738.00
29011,735.00
29026,698.00
29041,753.00
29055,746.00
29070,715.00
29084,748.00
29099,745.00
29113,732.00
29128,772.00
29143,690.00
29157,724.00
29172,740.00
29186,735.00
29201,708.00
29215,778.00
29230,724.00
29244,714.00
29259,741.00
29274,737.00
29288,743.00
29303,742.00
29317,705.00
29332,741.00
29346,763.00
29361,711.00
29375,720.00
29390,787.00
29405,736.00
29419,741.00
29434,715.00
29448,748.00
29463,738.00
29477,730.00
29492,706.00
29507,742.00
29521,752.00
29536,709.00
29550,768.00
29565,744.00
29579,736.00
29594,806.00
29608,720.00
29623,727.00
29638,735.00
29652,705.00
29667,709.00
29681,742.00
29696,553.00
29710,735.00
29725,722.00
29739,727.00
29754,732.00
29769,732.00
29783,722.00
29798,738.00
29812,759.00
29827,730.00
29841,743.00
29856,739.00
29871,721.00
29885,734.00
29900,733.00
29914,801.00
29929,761.00
29943,692.00
29958,723.00
29972,745.00
29987,722.00
30002,743.00
30016,674.00
30031,767.00
30045,747.00
30060,735.00
30074,719.00
30089,769.00
30103,736.00
30118,709.00
30133,751.00
30147,733.00
30162,697.00
30176,784.00
30191,718.00
30205,741.00
30220,733.00
30235,699.00
30249,724.00
30264,741.00
30278,715.00
30293,742.00
30307,748.00
30322,723.00
30336,769.00
30351,724.00
30366,725.00
30380,745.00
30395,737.00
30409,708.00
30424,742.00
30438,732.00
30453,707.00
30467,742.00
30482,747.00
30497,753.00
30511,745.00
30526,695.00
30540,731.00
30555,753.00
30569,707.00
30584,712.00
30599,750.00
30613,720.00
30628,737.00
30642,738.00
30657,728.00
30671,726.00
30686,733.00
30700,759.00
30715,740.00
30730,735.00
30744,713.00
30759,735.00
30773,765.00
30788,737.00
30802,736.00
30817,725.00
30831,733.00
30846,738.00
30861,748.00
30875,718.00
30890,767.00
30904,729.00
30919,745.00
30933,710.00
30948,726.00
30963,723.00
30977,733.00
30992,716.00
31006,749.00
31021,742.00
31035,709.00
31050,732.00
31064,736.00
31079,731.00
31094,757.00
31108,735.00
31123,722.00
31137,742.00
31152,698.00
31166,729.00
31181,741.00
31195,742.00
31210,748.00
31225,736.00
31239,723.00
31254,732.00
31268,737.00
31283,723.00
31297,735.00
31312,744.00
31327,707.00
31341,717.00
31356,769.00
31370,720.00
31385,736.00
31399,735.00
31414,716.00
31428,735.00
31443,697.00
31458,719.00
31472,748.00
31487,711.00
31501,776.00
31516,776.00
31530,733.00
31545,745.00
31559,744.00
31574,721.00
31589,740.00
31603,725.00
31618,698.00
31632,745.00
31647,746.00
31661,701.00
31676,716.00
31691,782.00
31705,727.00
31720,743.00
31734,710.00
31749,731.00
31763,754.00
31778,716.00
31792,720.00
31807,743.00
31822,724.00
31836,744.00
31851,738.00
31865,692.00
31880,773.00
31894,734.00
31909,721.00
31923,743.00
31938,734.00
31953,724.00
31967,743.00
31982,765.00
31996,735.00
32011,735.00
32025,735.00
32040,741.00
32055,801.00
32069,697.00
32084,693.00
32098,749.00
32113,733.00
32127,755.00
32142,745.00
32156,734.00
32171,777.00
32186,707.00
32200,722.00
32215,748.00
32229,746.00
32244,706.00
32258,739.00
32273,754.00
32287,741.00
32302,730.00
32317,733.00
32331,749.00
32346,734.00
32360,689.00
32375,729.00
32389,735.00
32404,720.00
32419,764.00
32433,731.00
32448,730.00
32462,742.00
32477,774.00
32491,719.00
32506,740.00
32520,739.00
32535,711.00
32550,736.00
32564,780.00
32579,745.00
32593,738.00
32608,737.00
32622,733.00
32637,739.00
32651,701.00
32666,757.00
32681,736.00
32695,715.00
32710,729.00
32724,697.00
32739,737.00
32753,742.00
32768,752.00
32783,729.00
32797,743.00
32812,765.00
32826,706.00
32841,747.00
32855,787.00
32870,720.00
32884,740.00
32899,736.00
32914,752.00
32928,743.00
32943,710.00
32957,727.00
32972,739.00
32986,706.00
33001,717.00
33015,756.00
33030,734.00
33045,744.00
33059,735.00
33074,728.00
33088,728.00
33103,728.00
33117,715.00
33132,744.00
33147,793.00
33161,710.00
33176,737.00
33190,741.00
33205,735.00
33219,735.00
33234,732.00
33248,740.00
33263,776.00
33278,690.00
33292,790.00
33307,699.00
33321,728.00
33336,739.00
33350,741.00
33365,729.00
33379,738.00
33394,751.00
33409,722.00
33423,738.00
33438,727.00
33452,706.00
33467,738.00
33481,732.00
33496,748.00
33511,731.00
33525,737.00
33540,733.00
33554,756.00
33569,700.00
33583,733.00
33598,741.00
33612,724.00
33627,733.00
33642,741.00
33656,736.00
33671,629.00
33685,724.00
33700,720.00
33714,743.00
33729,737.00
33743,695.00
33758,743.00
33773,737.00
33787,711.00
33802,739.00
33816,739.00
33831,734.00
33845,740.00
33860,702.00
33875,727.00
33889,762.00
33904,708.00
33918,736.00
33933,748.00
33947,736.00
33962,785.00
33976,719.00
33991,722.00
34006,740.00
34020,741.00
34035,713.00
34049,741.00
34064,737.00
34078,709.00
34093,731.00
34107,684.00
34122,736.00
34137,716.00
34151,701.00
34166,730.00
34180,728.00
34195,722.00
34209,721.00
34224,719.00
34239,725.00
34253,760.00
34268,730.00
34282,724.00
34297,738.00
34311,746.00
34326,716.00
34340,744.00
34355,759.00
34370,714.00
34384,727.00
34399,747.00
34413,744.00
34428,740.00
34442,695.00
34457,741.00
34471,737.00
34486,708.00
34501,724.00
34515,737.00
34530,737.00
34544,750.00
34559,737.00
34573,732.00
34588,748.00
34603,741.00
34617,728.00
34632,750.00
34646,737.00
34661,711.00
34675,752.00
34690,733.00
34704,727.00
34719,736.00
34734,733.00
34748,740.00
34763,714.00
34777,702.00
34792,724.00
34806,746.00
34821,753.00
34835,746.00
34850,741.00
34865,738.00
34879,740.00
34894,731.00
34908,737.00
34923,752.00
34937,735.00
34952,707.00
34967,740.00
34981,741.00
34996,697.00
35010,752.00
35025,733.00
35039,696.00
35054,730.00
35068,706.00
35083,731.00
35098,630.00
35112,700.00
35127,721.00
35141,735.00
35156,730.00
35170,733.00
35185,730.00
35199,726.00
35214,741.00
35229,754.00
35243,711.00
35258,745.00
35272,723.00
35287,712.00
35301,741.00
35316,719.00
35331,757.00
35345,725.00
35360,704.00
35374,740.00
35389,743.00
35403,703.00
35418,704.00
35432,684.00
35447,728.00
35462,764.00
35476,739.00
35491,723.00
35505,730.00
35520,728.00
35534,712.00
35549,739.00
35563,722.00
35578,731.00
35593,737.00
35607,771.00
35622,742.00
35636,725.00
35651,740.00
35665,718.00
35680,706.00
35695,662.00
35709,697.00
35724,735.00
35738,719.00
35753,720.00
35767,727.00
35782,751.00
35796,723.00
35811,729.00
35826,746.00
35840,728.00
35855,731.00
35869,693.00
35884,750.00
35898,728.00
35913,704.00
35927,744.00
35942,731.00
35957,754.00
35971,721.00
35986,692.00
36000,725.00
36015,748.00
36029,723.00
36044,716.00
36059,725.00
36073,722.00
36088,727.00
36102,716.00
36117,707.00
36131,728.00
36146,721.00
36160,701.00
36175,729.00
36190,725.00
36204,713.00
36219,734.00
36233,757.00
36248,744.00
36262,726.00
36277,700.00
36291,720.00
36306,749.00
36321,708.00
36335,736.00
36350,739.00
36364,735.00
36379,758.00
36393,748.00
36408,714.00
36423,736.00
36437,726.00
36452,706.00
36466,733.00
36481,733.00
36495,712.00
36510,728.00
36524,730.00
36539,768.00
36554,702.00
36568,710.00
36583,740.00
36597,756.00
36612,697.00
36626,753.00
36641,722.00
36655,733.00
36670,795.00
36685,728.00
36699,732.00
36714,580.00
36728,727.00
36743,722.00
36757,732.00
36772,724.00
36787,704.00
36801,736.00
36816,753.00
36830,752.00
36845,738.00
36859,750.00
36874,737.00
36888,739.00
36903,705.00
36918,721.00
36932,735.00
36947,717.00
36961,768.00
36976,739.00
36990,810.00
37005,769.00
37019,753.00
37034,726.00
37049,776.00
37063,736.00
37078,715.00
37092,731.00
37107,765.00
37121,714.00
37136,743.00
37151,737.00
37165,733.00
37180,750.00
37194,704.00
37209,728.00
37223,767.00
37238,724.00
37252,738.00
37267,725.00
37282,724.00
37296,745.00
37311,734.00
37325,728.00
37340,743.00
37354,737.00
37369,710.00
37383,748.00
37398,738.00
37413,726.00
37427,731.00
37442,735.00
37456,718.00
37471,726.00
37485,707.00
37500,727.00
37515,760.00
37529,712.00
37544,710.00
37558,768.00
37573,735.00
37587,747.00
37602,715.00
37616,728.00
37631,744.00
37646,730.00
37660,712.00
37675,743.00
37689,751.00
37704,712.00
37718,739.00
37733,754.00
37747,735.00
37762,740.00
37777,738.00
37791,743.00
37806,741.00
37820,700.00
37835,710.00
37849,740.00
37864,699.00
37879,751.00
37893,750.00
37908,714.00
37922,763.00
37937,737.00
37951,717.00
37966,745.00
37980,745.00
37995,709.00
38010,737.00
38024,741.00
38039,737.00
38053,740.00
38068,749.00
38082,735.00
38097,720.00
38111,702.00
38126,728.00
38141,751.00
38155,727.00
38170,733.00
38184,738.00
38199,739.00
38213,743.00
38228,733.00
38243,730.00
38257,733.00
38272,791.00
38286,715.00
38301,781.00
38315,771.00
38330,716.00
38344,741.00
38359,747.00
38374,730.00
38388,746.00
38403,761.00
38417,717.00
38432,746.00
38446,728.00
38461,744.00
38475,735.00
38490,733.00
38505,781.00
38519,742.00
38534,725.00
38548,723.00
38563,736.00
38577,714.00
38592,752.00
38607,737.00
38621,711.00
38636,745.00
38650,730.00
38665,735.00
38679,724.00
38694,720.00
38708,724.00
38723,741.00
38738,706.00
38752,730.00
38767,737.00
38781,744.00
38796,739.00
38810,735.00
38825,728.00
38839,740.00
38854,705.00
38869,714.00
38883,759.00
38898,735.00
38912,711.00
38927,846.00
38941,746.00
38956,737.00
38971,609.00
38985,693.00
39000,716.00
39014,755.00
39029,687.00
39043,712.00
39058,754.00
39072,721.00
39087,750.00
39102,751.00
39116,715.00
39131,744.00
39145,740.00
39160,722.00
39174,745.00
39189,753.00
39203,710.00
39218,740.00
39233,752.00
39247,754.00
39262,734.00
39276,728.00
39291,743.00
39305,740.00
39320,695.00
39335,711.00
39349,734.00
39364,727.00
39378,737.00
39393,739.00
39407,742.00
39422,760.00
39436,737.00
39451,710.00
39466,750.00
39480,773.00
39495,737.00
39509,742.00
39524,741.00
39538,721.00
39553,719.00
39567,738.00
39582,743.00
39597,745.00
39611,699.00
39626,730.00
39640,738.00
39655,725.00
39669,732.00
39684,739.00
39699,736.00
39713,732.00
39728,730.00
39742,721.00
39757,749.00
39771,736.00
39786,712.00
39800,717.00
39815,745.00
39830,718.00
39844,770.00
39859,742.00
39873,428.00
39888,723.00
39902,705.00
39917,711.00
39931,718.00
39946,714.00
39961,763.00
39975,760.00
39990,721.00
40004,741.00
40019,734.00
40033,725.00
40048,760.00
40063,741.00
40077,714.00
40092,754.00
40106,743.00
40121,705.00
40135,730.00
40150,739.00
40164,733.00
40179,722.00
40194,714.00
40208,737.00
40223,746.00
40237,706.00
40252,731.00
40266,747.00
40281,736.00
40295,743.00
40310,760.00
40325,729.00
40339,766.00
40354,738.00
40368,714.00
40383,742.00
40397,730.00
40412,710.00
40427,721.00
40441,755.00
40456,740.00
40470,755.00
40485,734.00
40499,725.00
40514,734.00
40528,695.00
40543,720.00
40558,751.00
40572,739.00
40587,744.00
40601,768.00
40616,728.00
40630,738.00
40645,736.00
40659,744.00
40674,741.00
40689,762.00
40703,707.00
40718,743.00
40732,710.00
40747,749.00
40761,743.00
40776,722.00
40791,741.00
40805,737.00
40820,712.00
40834,711.00
40849,739.00
40863,760.00
40878,762.00
40892,738.00
40907,731.00
40922,760.00
40936,734.00
40951,716.00
40965,775.00
40980,738.00
40994,711.00
41009,720.00
41023,729.00
41038,723.00
41053,732.00
41067,737.00
41082,742.00
41096,721.00
41111,696.00
41125,722.00
41140,725.00
41155,681.00
41169,704.00
41184,725.00
41198,722.00
41213,729.00
41227,719.00
41242,709.00
41256,726.00
41271,712.00
41286,689.00
41300,724.00
41315,745.00
41329,706.00
41344,727.00
41358,731.00
41373,728.00
41387,676.00
41402,742.00
41417,727.00
41431,792.00
41446,703.00
41460,696.00
41475,759.00
41489,754.00
41504,739.00
41519,737.00
41533,722.00
41548,740.00
41562,719.00
41577,714.00
41591,737.00
41606,744.00
41620,708.00
41635,714.00
41650,740.00
41664,722.00
41679,734.00
41693,725.00
41708,733.00
41722,736.00
41737,700.00
41751,718.00
41766,741.00
41781,734.00
41795,742.00
41810,709.00
41824,735.00
41839,737.00
41853,737.00
41868,725.00
41883,756.00
41897,734.00
41912,700.00
41926,725.00
41941,759.00
41955,737.00
41970,732.00
41984,719.00
41999,721.00
42014,743.00
42028,689.00
42043,732.00
42057,737.00
42072,719.00
42086,749.00
42101,741.00
42115,745.00
42130,735.00
42145,730.00
42159,745.00
42174,758.00
42188,729.00
42203,708.00
42217,656.00
42232,732.00
42247,722.00
42261,731.00
42276,727.00
42290,726.00
42305,735.00
42319,707.00
42334,730.00
42348,735.00
42363,708.00
42378,736.00
42392,731.00
42407,720.00
42421,725.00
42436,718.00
42450,720.00
42465,787.00
42479,731.00
42494,767.00
42509,759.00
42523,730.00
42538,708.00
42552,762.00
42567,740.00
42581,768.00
42596,748.00
42611,711.00
42625,734.00
42640,738.00
42654,721.00
42669,704.00
42683,744.00
42698,730.00
42712,733.00
42727,727.00
42742,724.00
42756,727.00
42771,711.00
42785,727.00
42800,716.00
42814,722.00
42829,735.00
42843,744.00
42858,727.00
42873,741.00
42887,712.00
42902,728.00
42916,724.00
42931,747.00
42945,694.00
42960,716.00
42975,735.00
42989,729.00
43004,743.00
43018,738.00
43033,437.00
43047,747.00
43062,737.00
43076,777.00
43091,732.00
43106,733.00
43120,712.00
43135,726.00
43149,733.00
43164,721.00
43178,719.00
43193,737.00
43207,738.00
43222,736.00
43237,711.00
43251,734.00
43266,745.00
43280,726.00
43295,742.00
43309,733.00
43324,595.00
43339,708.00
43353,736.00
43368,731.00
43382,738.00
43397,734.00
43411,768.00
43426,756.00
43440,742.00
43455,726.00
43470,747.00
43484,731.00
43499,688.00
43513,730.00
43528,695.00
43542,737.00
43557,746.00
43571,708.00
43586,735.00
43601,746.00
43615,737.00
43630,721.00
43644,742.00
43659,727.00
43673,729.00
43688,745.00
43703,708.00
43717,731.00
43732,736.00
43746,728.00
43761,754.00
43775,739.00
43790,756.00
43804,734.00
43819,704.00
43834,736.00
43848,738.00
43863,696.00
43877,705.00
43892,732.00
43906,728.00
43921,749.00
43935,729.00
43950,579.00
43965,741.00
43979,716.00
43994,685.00
44008,717.00
44023,749.00
44037,690.00
44052,717.00
44067,713.00
44081,699.00
44096,709.00
44110,701.00
44125,725.00
44139,719.00
44154,723.00
44168,685.00
44183,715.00
44198,709.00
44212,739.00
44227,717.00
44241,710.00
44256,705.00
44270,704.00
44285,707.00
44299,716.00
44314,714.00
44329,700.00
44343,719.00
44358,706.00
44372,717.00
44387,720.00
44401,714.00
44416,708.00
44431,728.00
44445,681.00
44460,702.00
44474,733.00
44489,707.00
44503,805.00
44518,729.00
44532,726.00
44547,738.00
44562,726.00
44576,716.00
44591,736.00
44605,729.00
44620,703.00
44634,728.00
44649,768.00
44663,721.00
44678,737.00
44693,778.00
44707,720.00
44722,733.00
44736,691.00
44751,711.00
44765,733.00
44780,701.00
44795,718.00
44809,727.00
44824,734.00
44838,737.00
44853,726.00
44867,722.00
44882,741.00
44896,722.00
44911,704.00
44926,735.00
44940,739.00
44955,712.00
44969,729.00
44984,729.00
44998,731.00
45013,733.00
45027,740.00
45042,733.00
45057,799.00
45071,710.00
45086,727.00
45100,736.00
45115,737.00
45129,743.00
45144,737.00
45159,719.00
45173,710.00
45188,731.00
45202,699.00
45217,741.00
45231,767.00
45246,693.00
45260,723.00
45275,727.00
45290,722.00
45304,720.00
45319,471.00
45333,719.00
45348,723.00
45362,691.00
45377,700.00
45391,731.00
45406,789.00
45421,731.00
45435,731.00
45450,709.00
45464,709.00
45479,732.00
45493,718.00
45508,721.00
45523,742.00
45537,704.00
45552,746.00
45566,726.00
45581,718.00
45595,745.00
45610,729.00
45624,733.00
45639,732.00
45654,694.00
45668,727.00
45683,738.00
45697,715.00
45712,729.00
45726,741.00
45741,721.00
45755,744.00
45770,735.00
45785,715.00
45799,744.00
45814,731.00
45828,700.00
45843,723.00
45857,737.00
45872,655.00
45887,736.00
45901,729.00
45916,734.00
45930,721.00
45945,683.00
45959,712.00
45974,746.00
45988,702.00
46003,732.00
46018,720.00
46032,724.00
46047,732.00
46061,723.00
46076,719.00
46090,739.00
46105,738.00
46119,704.00
46134,740.00
46149,745.00
46163,719.00
46178,721.00
46192,739.00
46207,716.00
46221,714.00
46236,705.00
46251,732.00
46265,741.00
46280,705.00
46294,722.00
46309,739.00
46323,732.00
46338,737.00
46352,722.00
46367,724.00
46382,735.00
46396,726.00
46411,735.00
46425,754.00
46440,732.00
46454,712.00
46469,724.00
46483,729.00
46498,735.00
46513,737.00
46527,704.00
46542,718.00
46556,731.00
46571,707.00
46585,707.00
46600,705.00
46615,729.00
46629,745.00
46644,734.00
46658,781.00
46673,713.00
46687,726.00
46702,713.00
46716,733.00
46731,733.00
46746,704.00
46760,742.00
46775,732.00
46789,708.00
46804,728.00
46818,709.00
46833,699.00
46847,709.00
46862,687.00
46877,711.00
46891,722.00
46906,732.00
46920,726.00
46935,717.00
46949,721.00
46964,721.00
46979,696.00
46993,690.00
47008,718.00
47022,717.00
47037,689.00
47051,715.00
47066,748.00
47080,709.00
47095,767.00
47110,715.00
47124,718.00
47139,716.00
47153,684.00
47168,719.00
47182,756.00
47197,708.00
47211,718.00
47226,742.00
47241,711.00
47255,712.00
47270,717.00
47284,707.00
47299,728.00
47313,724.00
47328,604.00
47343,736.00
47357,728.00
47372,715.00
47386,715.00
47401,718.00
47415,712.00
47430,705.00
47444,665.00
47459,692.00
47474,686.00
47488,661.00
47503,677.00
47517,709.00
47532,701.00
47546,715.00
47561,696.00
47575,796.00
47590,743.00
47605,720.00
47619,651.00
47634,720.00
47648,743.00
47663,705.00
47677,724.00
47692,724.00
47707,728.00
47721,727.00
47736,703.00
47750,708.00
47765,734.00
47779,719.00
47794,700.00
47808,715.00
47823,726.00
47838,730.00
47852,719.00
47867,701.00
47881,736.00
47896,693.00
47910,700.00
47925,722.00
47939,733.00
47954,697.00
47969,734.00
47983,715.00
47998,730.00
48012,723.00
48027,724.00
48041,721.00
48056,730.00
48071,698.00
48085,711.00
48100,761.00
48114,755.00
48129,738.00
48143,737.00
48158,724.00
48172,724.00
48187,725.00
48202,716.00
48216,736.00
48231,767.00
48245,706.00
48260,766.00
48274,749.00
48289,724.00
48303,737.00
48318,723.00
48333,728.00
48347,727.00
48362,692.00
48376,699.00
48391,727.00
48405,717.00
48420,741.00
48435,759.00
48449,726.00
48464,743.00
48478,726.00
48493,719.00
48507,738.00
48522,712.00
48536,699.00
48551,735.00
48566,721.00
48580,721.00
48595,765.00
48609,714.00
48624,744.00
48638,714.00
48653,712.00
48667,719.00
48682,731.00
48697,703.00
48711,726.00
48726,729.00
48740,727.00
48755,710.00
48769,727.00
48784,705.00
48799,730.00
48813,708.00
48828,682.00
48842,724.00
48857,721.00
48871,683.00
48886,711.00
48900,717.00
48915,722.00
48930,737.00
48944,678.00
48959,700.00
48973,707.00
48988,679.00
49002,692.00
49017,715.00
49031,711.00
49046,737.00
49061,720.00
49075,721.00
49090,720.00
49104,694.00
49119,695.00
49133,720.00
49148,704.00
49163,667.00
49177,708.00
49192,686.00
49206,703.00
49221,695.00
49235,707.00
49250,709.00
49264,719.00
49279,669.00
49294,706.00
49308,724.00
49323,722.00
49337,735.00
49352,743.00
49366,734.00
49381,736.00
49395,727.00
49410,710.00
49425,768.00
49439,717.00
49454,698.00
49468,732.00
49483,747.00
49497,756.00
49512,782.00
49527,725.00
49541,728.00
49556,733.00
49570,693.00
49585,740.00
49599,724.00
49614,718.00
49628,743.00
49643,729.00
49658,717.00
49672,743.00
49687,706.00
49701,672.00
49716,715.00
49730,714.00
49745,689.00
49759,693.00
49774,705.00
49789,696.00
49803,709.00
49818,703.00
49832,713.00
49847,706.00
49861,726.00
49876,676.00
49891,689.00
49905,707.00
49920,672.00
49934,710.00
49949,726.00
49963,723.00
49978,713.00
49992,705.00
50007,723.00
50022,707.00
50036,690.00
50051,724.00
50065,735.00
50080,700.00
50094,727.00
50109,725.00
50123,722.00
50138,715.00
50153,693.00
50167,714.00
50182,745.00
50196,691.00
50211,699.00
50225,719.00
50240,720.00
50255,732.00
50269,734.00
50284,725.00
50298,729.00
50313,716.00
50327,696.00
50342,705.00
50356,750.00
50371,705.00
50386,708.00
50400,730.00
50415,726.00
50429,741.00
50444,719.00
50458,712.00
50473,770.00
50487,693.00
50502,709.00
50517,722.00
50531,725.00
50546,778.00
50560,730.00
50575,723.00
50589,742.00
50604,731.00
50619,708.00
50633,717.00
50648,728.00
50662,698.00
50677,729.00
50691,732.00
50706,737.00
50720,717.00
50735,721.00
50750,730.00
50764,717.00
50779,670.00
50793,710.00
50808,727.00
50822,719.00
50837,735.00
50851,732.00
50866,709.00
50881,736.00
50895,778.00
50910,709.00
50924,729.00
50939,743.00
50953,685.00
50968,714.00
50983,716.00
50997,700.00
51012,701.00
51026,710.00
51041,706.00
51055,708.00
51070,673.00
51084,708.00
51099,703.00
51114,691.00
51128,775.00
51143,744.00
51157,720.00
51172,721.00
51186,720.00
51201,708.00
51215,721.00
51230,702.00
51245,677.00
51259,730.00
51274,706.00
51288,684.00
51303,712.00
51317,700.00
51332,701.00
51347,704.00
51361,689.00
51376,708.00
51390,717.00
51405,688.00
51419,700.00
51434,723.00
51448,741.00
51463,728.00
51478,730.00
51492,727.00
51507,731.00
51521,716.00
51536,705.00
51550,715.00
51565,770.00
51579,705.00
51594,730.00
51609,723.00
51623,732.00
51638,714.00
51652,706.00
51667,727.00
51681,769.00
51696,694.00
51711,695.00
51725,751.00
51740,745.00
51754,770.00
51769,744.00
51783,725.00
51798,743.00
51812,734.00
51827,695.00
51842,757.00
51856,736.00
51871,718.00
51885,728.00
51900,736.00
51914,748.00
51929,736.00
51943,563.00
51958,755.00
51973,735.00
51987,690.00
52002,717.00
52016,721.00
52031,708.00
52045,747.00
52060,569.00
52075,747.00
52089,737.00
52104,733.00
52118,718.00
52133,738.00
52147,764.00
52162,708.00
52176,736.00
52191,724.00
52206,724.00
52220,746.00
52235,737.00
52249,730.00
52264,742.00
52278,701.00
52293,724.00
52307,764.00
52322,717.00
52337,762.00
52351,734.00
52366,717.00
52380,725.00
52395,725.00
52409,722.00
52424,724.00
52439,727.00
52453,702.00
52468,686.00
52482,745.00
52497,706.00
52511,736.00
52526,733.00
52540,727.00
52555,715.00
52570,675.00
52584,703.00
52599,717.00
52613,753.00
52628,692.00
52642,719.00
52657,726.00
52671,732.00
52686,726.00
52701,763.00
52715,728.00
52730,748.00
52744,721.00
52759,728.00
52773,742.00
52788,705.00
52803,724.00
52817,726.00
52832,732.00
52846,732.00
52861,709.00
52875,724.00
52890,756.00
52904,700.00
52919,707.00
52934,762.00
52948,716.00
52963,721.00
52977,711.00
52992,705.00
53006,734.00
53021,713.00
53035,695.00
53050,709.00
53065,715.00
53079,698.00
53094,723.00
53108,793.00
53123,704.00
53137,722.00
53152,730.00
53167,719.00
53181,726.00
53196,686.00
53210,713.00
53225,739.00
53239,714.00
53254,736.00
53268,758.00
53283,722.00
53298,800.00
53312,733.00
53327,715.00
53341,726.00
53356,720.00
53370,704.00
53385,709.00
53399,724.00
53414,703.00
53429,723.00
53443,725.00
53458,718.00
53472,721.00
53487,644.00
53501,698.00
53516,717.00
53531,677.00
53545,719.00
53560,797.00
53574,718.00
53589,736.00
53603,722.00
53618,726.00
53632,733.00
53647,709.00
53662,699.00
53676,711.00
53691,740.00
53705,705.00
53720,720.00
53734,731.00
53749,770.00
53763,733.00
53778,701.00
53793,732.00
53807,758.00
53822,648.00
53836,734.00
53851,733.00
53865,733.00
53880,737.00
53895,734.00
53909,713.00
53924,740.00
53938,705.00
53953,710.00
53967,738.00
53982,733.00
53996,699.00
54011,722.00
54026,752.00
54040,727.00
54055,714.00
54069,708.00
54084,718.00
54098,763.00
54113,688.00
54127,706.00
54142,724.00
54157,710.00
54171,743.00
54186,719.00
54200,726.00
54215,717.00
54229,707.00
54244,686.00
54259,715.00
54273,793.00
54288,685.00
54302,710.00
54317,727.00
54331,716.00
54346,721.00
54360,704.00
54375,723.00
54390,732.00
54404,696.00
54419,719.00
54433,720.00
54448,738.00
54462,764.00
54477,743.00
54491,727.00
54506,735.00
54521,739.00
54535,732.00
54550,731.00
54564,739.00
54579,707.00
54593,740.00
54608,764.00
54623,716.00
54637,717.00
54652,721.00
54666,716.00
54681,717.00
54695,680.00
54710,736.00
54724,727.00
54739,709.00
54754,719.00
54768,730.00
54783,742.00
54797,736.00
54812,752.00
54826,721.00
54841,738.00
54855,765.00
54870,685.00
54885,767.00
54899,676.00
54914,715.00
54928,740.00
54943,764.00
54957,729.00
54972,729.00
54987,701.00
55001,719.00
55016,731.00
55030,702.00
55045,719.00
55059,727.00
55074,735.00
55088,738.00
55103,747.00
55118,714.00
55132,728.00
55147,730.00
55161,696.00
55176,733.00
55190,725.00
55205,736.00
55219,737.00
55234,721.00
55249,723.00
55263,727.00
55278,709.00
55292,720.00
55307,736.00
55321,715.00
55336,692.00
55351,728.00
55365,722.00
55380,733.00
55394,739.00
55409,729.00
55423,728.00
55438,711.00
55452,699.00
55467,728.00
55482,730.00
55496,693.00
55511,722.00
55525,739.00
55540,727.00
55554,742.00
55569,723.00
55583,722.00
55598,736.00
55613,688.00
55627,713.00
55642,726.00
55656,720.00
55671,791.00
55685,729.00
55700,721.00
55715,718.00
55729,718.00
55744,707.00
55758,718.00
55773,715.00
55787,675.00
55802,722.00
55816,749.00
55831,707.00
55846,717.00
55860,720.00
55875,718.00
55889,699.00
55904,677.00
55918,691.00
55933,746.00
55947,713.00
55962,718.00
55977,748.00
55991,705.00
56006,729.00
56020,712.00
56035,707.00
56049,752.00
56064,727.00
56079,683.00
56093,721.00
56108,717.00
56122,669.00
56137,713.00
56151,776.00
56166,717.00
56180,713.00
56195,688.00
56210,715.00
56224,722.00
56239,693.00
56253,699.00
56268,730.00
56282,710.00
56297,720.00
56311,715.00
56326,708.00
56341,739.00
56355,708.00
56370,685.00
56384,709.00
56399,712.00
56413,751.00
56428,704.00
56443,718.00
56457,724.00
56472,718.00
56486,746.00
56501,678.00
56515,711.00
56530,671.00
56544,695.00
56559,725.00
56574,734.00
56588,731.00
56603,715.00
56617,726.00
56632,730.00
56646,728.00
56661,711.00
56675,731.00
56690,723.00
56705,700.00
56719,728.00
56734,735.00
56748,722.00
56763,730.00
56777,729.00
56792,728.00
56807,720.00
56821,739.00
56836,694.00
56850,715.00
56865,719.00
56879,729.00
56894,864.00
56908,725.00
56923,730.00
56938,717.00
56952,718.00
56967,717.00
56981,747.00
56996,691.00
57010,735.00
57025,742.00
57039,718.00
57054,728.00
57069,723.00
57083,708.00
57098,724.00
57112,745.00
57127,710.00
57141,755.00
57156,713.00
57171,739.00
57185,778.00
57200,734.00
57214,725.00
57229,727.00
57243,716.00
57258,713.00
57272,739.00
57287,706.00
57302,740.00
57316,736.00
57331,759.00
57345,732.00
57360,731.00
57374,737.00
57389,727.00
57403,689.00
57418,714.00
57433,736.00
57447,704.00
57462,725.00
57476,776.00
57491,737.00
57505,743.00
57520,731.00
57535,725.00
57549,730.00
57564,741.00
57578,700.00
57593,718.00
57607,736.00
57622,728.00
57636,746.00
57651,736.00
57666,720.00
57680,725.00
57695,696.00
57709,706.00
57724,730.00
57738,694.00
57753,687.00
57767,714.00
57782,710.00
57797,725.00
57811,725.00
57826,717.00
57840,777.00
57855,711.00
57869,705.00
57884,727.00
57899,735.00
57913,711.00
57928,719.00
57942,721.00
57957,707.00
57971,700.00
57986,676.00
58000,703.00
58015,751.00
58030,683.00
58044,697.00
58059,738.00
58073,710.00
58088,736.00
58102,709.00
58117,718.00
58131,730.00
58146,685.00
58161,708.00
58175,741.00
58190,700.00
58204,703.00
58219,739.00
58233,724.00
58248,720.00
58263,706.00
58277,726.00
58292,724.00
58306,728.00
58321,692.00
58335,735.00
58350,728.00
58364,731.00
58379,721.00
58394,710.00
58408,721.00
58423,730.00
58437,720.00
58452,708.00
58466,751.00
58481,728.00
58495,703.00
58510,729.00
58525,752.00
58539,716.00
58554,823.00
58568,733.00
58583,734.00
58597,732.00
58612,690.00
58627,714.00
58641,709.00
58656,692.00
58670,706.00
58685,729.00
58699,732.00
58714,763.00
58728,736.00
58743,736.00
58758,738.00
58772,728.00
58787,709.00
58801,731.00
58816,723.00
58830,708.00
58845,719.00
58859,718.00
58874,721.00
58889,713.00
58903,694.00
58918,710.00
58932,724.00
58947,687.00
58961,679.00
58976,709.00
58991,721.00
59005,722.00
59020,737.00
59034,713.00
59049,709.00
59063,730.00
59078,695.00
59092,713.00
59107,727.00
59122,695.00
59136,713.00
59151,730.00
59165,728.00
59180,704.00
59194,683.00
59209,716.00
59223,734.00
59238,673.00
59253,704.00
59267,714.00
59282,730.00
59296,728.00
59311,719.00
59325,715.00
59340,727.00
59355,702.00
59369,705.00
59384,731.00
59398,716.00
59413,700.00
59427,760.00
59442,733.00
59456,724.00
59471,740.00
59486,729.00
59500,734.00
59515,734.00
59529,699.00
59544,716.00
59558,749.00
59573,723.00
59587,734.00
59602,789.00
59617,723.00
59631,738.00
59646,717.00
59660,714.00
59675,660.00
59689,713.00
59704,705.00
59719,733.00
59733,742.00
59748,725.00
59762,743.00
59777,729.00
59791,730.00
59806,725.00
59820,737.00
59835,714.00
59850,736.00
59864,740.00
59879,728.00
59893,734.00
59908,712.00
59922,736.00
59937,728.00
59951,718.00
59966,735.00
59981,748.00
59995,709.00
60010,768.00
60024,742.00
60039,696.00
60053,749.00
60068,731.00
60083,755.00
60097,726.00
60112,701.00
60126,714.00
60141,736.00
60155,695.00
60170,699.00
60184,712.00
60199,704.00
60214,713.00
60228,381.00
60243,703.00
60257,709.00
60272,674.00
60286,680.00
60301,716.00
60315,727.00
60330,685.00
60345,716.00
60359,701.00
60374,706.00
60388,698.00
60403,683.00
60417,718.00
60432,714.00
60447,667.00
60461,688.00
60476,717.00
60490,698.00
60505,724.00
60519,714.00
60534,720.00
60548,722.00
60563,678.00
60578,697.00
60592,724.00
60607,727.00
60621,689.00
60636,720.00
60650,717.00
60665,722.00
60679,734.00
60694,716.00
60709,766.00
60723,719.00
60738,690.00
60752,721.00
60767,726.00
60781,743.00
60796,740.00
60811,726.00
60825,769.00
60840,733.00
60854,719.00
60869,709.00
60883,737.00
60898,687.00
60912,701.00
60927,739.00
60942,726.00
60956,770.00
60971,760.00
60985,713.00
61000,740.00
61014,724.00
61029,682.00
61043,718.00
61058,725.00
61073,726.00
61087,714.00
61102,719.00
61116,725.00
61131,721.00
61145,740.00
61160,715.00
61175,724.00
61189,708.00
61204,703.00
61218,710.00
61233,743.00
61247,707.00
61262,733.00
61276,715.00
61291,738.00
61306,725.00
61320,687.00
61335,712.00
61349,726.00
61364,692.00
61378,707.00
61393,727.00
61407,736.00
61422,740.00
61437,723.00
61451,721.00
61466,720.00
61480,725.00
61495,701.00
61509,731.00
61524,711.00
61539,726.00
61553,740.00
61568,851.00
61582,727.00
61597,722.00
61611,705.00
61626,723.00
61640,760.00
61655,696.00
61670,699.00
61684,733.00
61699,728.00
61713,736.00
61728,731.00
61742,731.00
61757,741.00
61771,735.00
61786,706.00
61801,727.00
61815,732.00
61830,696.00
61844,729.00
61859,733.00
61873,729.00
61888,700.00
61903,729.00
61917,709.00
61932,732.00
61946,689.00
61961,710.00
61975,731.00
61990,737.00
62004,736.00
62019,735.00
62034,743.00
62048,735.00
62063,736.00
62077,715.00
62092,766.00
62106,677.00
62121,703.00
62135,725.00
62150,750.00
62165,776.00
62179,747.00
62194,726.00
62208,721.00
62223,717.00
62237,680.00
62252,717.00
62267,720.00
62281,700.00
62296,722.00
62310,723.00
62325,713.00
62339,722.00
62354,768.00
62368,709.00
62383,735.00
62398,725.00
62412,701.00
62427,792.00
62441,734.00
62456,713.00
62470,729.00
62485,761.00
62499,717.00
62514,732.00
62529,705.00
62543,722.00
62558,726.00
62572,694.00
62587,702.00
62601,726.00
62616,731.00
62631,741.00
62645,733.00
62660,705.00
62674,750.00
62689,729.00
62703,730.00
62718,734.00
62732,727.00
62747,708.00
62762,734.00
62776,749.00
62791,737.00
62805,727.00
62820,711.00
62834,641.00
62849,572.00
62863,700.00
62878,722.00
62893,739.00
62907,753.00
62922,735.00
62936,738.00
62951,732.00
62965,739.00
62980,734.00
62995,710.00
63009,778.00
63024,720.00
63038,709.00
63053,734.00
63067,737.00
63082,735.00
63096,732.00
63111,718.00
63126,726.00
63140,707.00
63155,670.00
63169,697.00
63184,719.00
63198,710.00
63213,731.00
63227,740.00
63242,719.00
63257,755.00
63271,736.00
63286,712.00
63300,718.00
63315,710.00
63329,683.00
63344,716.00
63359,713.00
63373,693.00
63388,699.00
63402,717.00
63417,720.00
63431,747.00
63446,688.00
63460,716.00
63475,727.00
63490,711.00
63504,730.00
63519,737.00
63533,723.00
63548,757.00
63562,721.00
63577,716.00
63591,718.00
63606,772.00
63621,678.00
63635,715.00
63650,724.00
63664,708.00
63679,756.00
63693,732.00
63708,727.00
63723,754.00
63737,693.00
63752,710.00
63766,722.00
63781,714.00
63795,685.00
63810,731.00
63824,709.00
63839,729.00
63854,722.00
63868,712.00
63883,741.00
63897,753.00
63912,703.00
63926,728.00
63941,721.00
63955,706.00
63970,707.00
63985,706.00
63999,697.00
64014,713.00
64028,694.00
64043,710.00
64057,770.00
64072,692.00
64087,698.00
64101,717.00
64116,716.00
64130,691.00
64145,718.00
64159,706.00
64174,722.00
64188,708.00
64203,695.00
64218,723.00
64232,802.00
64247,699.00
64261,717.00
64276,719.00
64290,725.00
64305,705.00
64319,727.00
64334,717.00
64349,678.00
64363,668.00
64378,700.00
64392,731.00
64407,720.00
64421,754.00
64436,725.00
64451,719.00
64465,728.00
64480,724.00
64494,717.00
64509,688.00
64523,717.00
64538,694.00
64552,728.00
64567,734.00
64582,724.00
64596,733.00
64611,733.00
64625,729.00
64640,722.00
64654,686.00
64669,715.00
64683,731.00
64698,722.00
64713,737.00
64727,755.00
64742,730.00
64756,726.00
64771,742.00
64785,721.00
64800,706.00
64815,731.00
64829,704.00
64844,730.00
64858,736.00
64873,725.00
64887,718.00
64902,744.00
64916,731.00
64931,787.00
64946,693.00
64960,727.00
64975,745.00
64989,709.00
65004,711.00
65018,736.00
65033,716.00
65047,766.00
65062,726.00
65077,724.00
65091,723.00
65106,721.00
65120,686.00
65135,724.00
65149,717.00
65164,707.00
65179,693.00
65193,741.00
65208,731.00
65222,701.00
65237,685.00
65251,685.00
65266,714.00
65280,686.00
65295,725.00
65310,723.00
65324,709.00
65339,718.00
65353,712.00
65368,734.00
65382,730.00
65397,728.00
65411,700.00
65426,702.00
65441,738.00
65455,704.00
65470,723.00
65484,732.00
65499,730.00
65513,725.00
65528,773.00
65543,727.00
65557,743.00
65572,705.00
65586,714.00
65601,732.00
65615,725.00
65630,739.00
65644,744.00
65659,732.00
65674,722.00
65688,727.00
65703,704.00
65717,760.00
65732,726.00
65746,699.00
65761,730.00
65775,732.00
65790,732.00
65805,725.00
65819,722.00
65834,733.00
65848,716.00
65863,717.00
65877,849.00
65892,730.00
65907,724.00
65921,735.00
65936,739.00
65950,721.00
65965,732.00
65979,604.00
65994,736.00
66008,739.00
66023,728.00
66038,709.00
66052,721.00
66067,738.00
66081,725.00
66096,728.00
66110,729.00
66125,720.00
66139,742.00
66154,792.00
66169,714.00
66183,726.00
66198,718.00
66212,737.00
66227,764.00
66241,718.00
66256,718.00
66271,726.00
66285,709.00
66300,710.00
66314,713.00
66329,689.00
66343,711.00
66358,730.00
66372,706.00
66387,724.00
66402,727.00
66416,700.00
66431,721.00
66445,689.00
66460,701.00
66474,773.00
66489,708.00
66503,714.00
66518,733.00
66533,709.00
66547,736.00
66562,766.00
66576,721.00
66591,746.00
66605,695.00
66620,703.00
66635,739.00
66649,752.00
66664,704.00
66678,730.00
66693,727.00
66707,735.00
66722,726.00
66736,719.00
66751,715.00
66766,746.00
66780,702.00
66795,706.00
66809,773.00
66824,720.00
66838,722.00
66853,758.00
66867,711.00
66882,730.00
66897,732.00
66911,706.00
66926,715.00
66940,727.00
66955,675.00
66969,690.00
66984,695.00
66999,694.00
67013,701.00
67028,736.00
67042,689.00
67057,695.00
67071,650.00
67086,675.00
67100,677.00
67115,695.00
67130,703.00
67144,686.00
67159,692.00
67173,711.00
67188,704.00
67202,700.00
67217,707.00
67231,718.00
67246,688.00
67261,723.00
67275,708.00
67290,693.00
67304,698.00
67319,683.00
67333,704.00
67348,698.00
67363,677.00
67377,710.00
67392,727.00
67406,708.00
67421,720.00
67435,715.00
67450,708.00
67464,721.00
67479,753.00
67494,710.00
67508,730.00
67523,721.00
67537,693.00
67552,711.00
67566,735.00
67581,687.00
67595,707.00
67610,748.00
67625,699.00
67639,713.00
67654,681.00
67668,703.00
67683,720.00
67697,681.00
67712,683.00
67727,692.00
67741,699.00
67756,702.00
67770,712.00
67785,686.00
67799,699.00
67814,706.00
67828,692.00
67843,708.00
67858,708.00
67872,698.00
67887,717.00
67901,623.00
67916,719.00
67930,711.00
67945,692.00
67959,713.00
67974,712.00
67989,693.00
68003,697.00
68018,723.00
68032,720.00
68047,718.00
68061,721.00
68076,700.00
68091,734.00
68105,702.00
68120,692.00
68134,727.00
68149,697.00
68163,695.00
68178,728.00
68192,717.00
68207,732.00
68222,723.00
68236,719.00
68251,745.00
68265,740.00
68280,690.00
68294,711.00
68309,737.00
68323,702.00
68338,725.00
68353,722.00
68367,710.00
68382,721.00
68396,712.00
68411,698.00
68425,801.00
68440,741.00
68455,699.00
68469,718.00
68484,729.00
68498,747.00
68513,720.00
68527,726.00
68542,759.00
68556,729.00
68571,690.00
68586,713.00
68600,834.00
68615,693.00
68629,713.00
68644,716.00
68658,710.00
68673,727.00
68687,720.00
68702,713.00
68717,743.00
68731,722.00
68746,703.00
68760,774.00
68775,765.00
68789,710.00
68804,715.00
68819,729.00
68833,715.00
68848,731.00
68862,686.00
68877,689.00
68891,735.00
68906,705.00
68920,682.00
68935,729.00
68950,706.00
68964,743.00
68979,731.00
68993,730.00
69008,735.00
69022,736.00
69037,706.00
69051,732.00
69066,773.00
69081,704.00
69095,712.00
69110,719.00
69124,705.00
69139,707.00
69153,694.00
69168,711.00
69183,724.00
69197,678.00
69212,689.00
69226,714.00
69241,732.00
69255,733.00
69270,741.00
69284,723.00
69299,585.00
69314,724.00
69328,725.00
69343,734.00
69357,737.00
69372,708.00
69386,766.00
69401,729.00
69415,735.00
69430,719.00
69445,705.00
69459,699.00
69474,728.00
69488,688.00
69503,714.00
69517,728.00
69532,730.00
69547,749.00
69561,750.00
69576,725.00
69590,735.00
69605,723.00
69619,727.00
69634,733.00
69648,724.00
69663,691.00
69678,709.00
69692,738.00
69707,706.00
69721,773.00
69736,746.00
69750,717.00
69765,717.00
69779,689.00
69794,711.00
69809,730.00
69823,710.00
69838,723.00
69852,722.00
69867,722.00
69881,725.00
69896,739.00
69911,706.00
69925,724.00
69940,709.00
69954,694.00
69969,727.00
69983,729.00
69998,750.00
70012,705.00
70027,726.00
70042,730.00
70056,728.00
70071,689.00
70085,716.00
70100,746.00
70114,714.00
70129,719.00
70143,699.00
70158,715.00
70173,718.00
70187,705.00
70202,705.00
70216,726.00
70231,721.00
70245,685.00
70260,731.00
70275,749.00
70289,708.00
70304,730.00
70318,740.00
70333,721.00
70347,727.00
70362,678.00
70376,737.00
70391,718.00
70406,675.00
70420,678.00
70435,714.00
70449,684.00
70464,728.00
70478,734.00
70493,713.00
70507,592.00
70522,732.00
70537,701.00
70551,723.00
70566,732.00
70580,703.00
70595,714.00
70609,747.00
70624,716.00
70639,690.00
70653,681.00
70668,697.00
70682,728.00
70697,670.00
70711,726.00
70726,726.00
70740,714.00
70755,733.00
70770,721.00
70784,718.00
70799,728.00
70813,728.00
70828,703.00
70842,731.00
70857,728.00
70871,711.00
70886,728.00
70901,733.00
70915,716.00
70930,734.00
70944,738.00
70959,725.00
70973,733.00
70988,694.00
71003,711.00
71017,699.00
71032,721.00
71046,720.00
71061,725.00
71075,768.00
71090,732.00
71104,728.00
71119,752.00
71134,750.00
71148,725.00
71163,677.00
71177,769.00
71192,723.00
71206,712.00
71221,710.00
71235,712.00
71250,701.00
71265,710.00
71279,665.00
71294,713.00
71308,739.00
71323,692.00
71337,710.00
71352,718.00
71367,701.00
71381,702.00
71396,717.00
71410,573.00
71425,744.00
71439,719.00
71454,690.00
71468,709.00
71483,714.00
71498,706.00
71512,758.00
71527,708.00
71541,696.00
71556,699.00
71570,655.00
71585,697.00
71599,700.00
71614,691.00
71629,681.00
71643,748.00
71658,702.00
71672,719.00
71687,731.00
71701,715.00
71716,669.00
71731,700.00
71745,699.00
71760,734.00
71774,723.00
71789,721.00
71803,717.00
71818,717.00
71832,724.00
71847,715.00
71862,691.00
71876,709.00
71891,725.00
71905,725.00
71920,691.00
71934,715.00
71949,701.00
71963,746.00
71978,717.00
71993,702.00
72007,712.00
72022,690.00
72036,667.00
72051,689.00
72065,739.00
72080,662.00
72095,698.00
72109,713.00
72124,694.00
72138,693.00
72153,676.00
72167,689.00
72182,701.00
72196,669.00
72211,691.00
72226,710.00
72240,703.00
72255,719.00
72269,708.00
72284,719.00
72298,713.00
72313,713.00
72327,674.00
72342,714.00
72357,718.00
72371,690.00
72386,758.00
72400,759.00
72415,712.00
72429,716.00
72444,724.00
72459,703.00
72473,730.00
72488,693.00
72502,711.00
72517,732.00
72531,720.00
72546,728.00
72560,741.00
72575,725.00
72590,732.00
72604,731.00
72619,714.00
72633,737.00
72648,732.00
72662,706.00
72677,738.00
72691,741.00
72706,721.00
72721,740.00
72735,730.00
72750,734.00
72764,752.00
72779,694.00
72793,723.00
72808,738.00
72823,703.00
72837,717.00
72852,501.00
72866,724.00
72881,731.00
72895,734.00
72910,719.00
72924,715.00
72939,729.00
72954,762.00
72968,719.00
72983,717.00
72997,719.00
73012,733.00
73026,726.00
73041,740.00
73055,768.00
73070,714.00
73085,722.00
73099,746.00
73114,704.00
73128,743.00
73143,730.00
73157,710.00
73172,731.00
73187,734.00
73201,705.00
73216,732.00
73230,735.00
73245,710.00
73259,722.00
73274,734.00
73288,716.00
73303,759.00
73318,734.00
73332,727.00
73347,728.00
73361,717.00
73376,718.00
73390,586.00
73405,710.00
73419,722.00
73434,714.00
73449,739.00
73463,745.00
73478,741.00
73492,716.00
73507,752.00
73521,780.00
73536,719.00
73551,742.00
73565,730.00
73580,701.00
73594,702.00
73609,730.00
73623,704.00
73638,720.00
73652,831.00
73667,701.00
73682,709.00
73696,679.00
73711,702.00
73725,726.00
73740,707.00
73754,710.00
73769,718.00
73783,713.00
73798,715.00
73813,712.00
73827,692.00
73842,726.00
73856,707.00
73871,692.00
73885,542.00
73900,733.00
73915,714.00
73929,726.00
73944,712.00
73958,686.00
73973,706.00
73987,662.00
74002,700.00
74016,706.00
74031,677.00
74046,697.00
74060,699.00
74075,697.00
74089,717.00
74104,699.00
74118,697.00
74133,735.00
74147,717.00
74162,696.00
74177,765.00
74191,726.00
74206,740.00
74220,774.00
74235,743.00
74249,742.00
74264,710.00
74279,682.00
74293,707.00
74308,722.00
74322,636.00
74337,687.00
74351,694.00
74366,712.00
74380,695.00
74395,696.00
74410,683.00
74424,693.00
74439,706.00
74453,683.00
74468,755.00
74482,716.00
74497,695.00
74511,718.00
74526,708.00
74541,726.00
74555,713.00
74570,694.00
74584,713.00
74599,784.00
74613,694.00
74628,712.00
74643,731.00
74657,725.00
74672,746.00
74686,749.00
74701,733.00
74715,740.00
74730,722.00
74744,701.00
74759,730.00
74774,733.00
74788,701.00
74803,729.00
74817,778.00
74832,743.00
74846,738.00
74861,717.00
74875,724.00
74890,737.00
74905,699.00
74919,725.00
74934,731.00
74948,728.00
74963,729.00
74977,750.00
74992,718.00
75007,732.00
75021,729.00
75036,706.00
75050,737.00
75065,730.00
75079,674.00
75094,714.00
75108,701.00
75123,709.00
75138,708.00
75152,704.00
75167,708.00
75181,724.00
75196,683.00
75210,721.00
75225,718.00
75239,720.00
75254,735.00
75269,722.00
75283,725.00
75298,723.00
75312,723.00
75327,708.00
75341,726.00
75356,694.00
75371,693.00
75385,721.00
75400,725.00
75414,757.00
75429,735.00
75443,725.00
75458,741.00
75472,730.00
75487,685.00
75502,718.00
75516,703.00
75531,707.00
75545,758.00
75560,713.00
75574,714.00
75589,754.00
75603,712.00
75618,680.00
75633,725.00
75647,729.00
75662,689.00
75676,788.00
75691,735.00
75705,692.00
75720,692.00
75735,685.00
75749,729.00
75764,721.00
75778,691.00
75793,722.00
75807,716.00
75822,695.00
75836,721.00
75851,744.00
75866,725.00
75880,780.00
75895,733.00
75909,724.00
75924,734.00
75938,730.00
75953,697.00
75967,736.00
75982,708.00
75997,696.00
76011,711.00
76026,698.00
76040,726.00
76055,719.00
76069,745.00
76084,717.00
76099,732.00
76113,701.00
76128,700.00
76142,714.00
76157,716.00
76171,739.00
76186,722.00
76200,737.00
76215,732.00
76230,715.00
76244,701.00
76259,736.00
76273,742.00
76288,697.00
76302,741.00
76317,754.00
76331,729.00
76346,727.00
76361,725.00
76375,723.00
76390,732.00
76404,704.00
76419,714.00
76433,778.00
76448,720.00
76463,738.00
76477,731.00
76492,707.00
76506,712.00
76521,732.00
76535,718.00
76550,726.00
76564,715.00
76579,698.00
76594,725.00
76608,729.00
76623,711.00
76637,697.00
76652,707.00
76666,713.00
76681,758.00
76695,706.00
76710,727.00
76725,733.00
76739,713.00
76754,765.00
76768,727.00
76783,739.00
76797,743.00
76812,709.00
76827,718.00
76841,736.00
76856,736.00
76870,723.00
76885,721.00
76899,736.00
76914,721.00
76928,706.00
76943,738.00
76958,727.00
76972,821.00
76987,714.00
77001,716.00
77016,723.00
77030,715.00
77045,749.00
77059,746.00
77074,732.00
77089,742.00
77103,731.00
77118,726.00
77132,770.00
77147,727.00
77161,708.00
77176,520.00
77191,756.00
77205,715.00
77220,740.00
77234,735.00
77249,739.00
77263,727.00
77278,703.00
77292,735.00
77307,739.00
77322,709.00
77336,719.00
77351,756.00
77365,731.00
77380,752.00
77394,731.00
77409,845.00
77423,748.00
77438,732.00
77453,708.00
77467,738.00
77482,746.00
77496,708.00
77511,738.00
77525,737.00
77540,737.00
77555,695.00
77569,714.00
77584,719.00
77598,744.00
77613,724.00
77627,736.00
77642,740.00
77656,759.00
77671,739.00
77686,734.00
77700,728.00
77715,743.00
77729,734.00
77744,707.00
77758,755.00
77773,736.00
77787,743.00
77802,745.00
77817,798.00
77831,738.00
77846,772.00
77860,743.00
77875,732.00
77889,756.00
77904,701.00
77919,719.00
77933,734.00
77948,747.00
77962,741.00
77977,648.00
77991,728.00
78006,728.00
78020,758.00
78035,725.00
78050,752.00
78064,734.00
78079,759.00
78093,745.00
78108,738.00
78122,753.00
78137,735.00
78151,694.00
78166,728.00
78181,742.00
78195,694.00
78210,321.00
78224,724.00
78239,721.00
78253,720.00
78268,557.00
78283,687.00
78297,737.00
78312,733.00
78326,716.00
78341,738.00
78355,721.00
78370,705.00
78384,780.00
78399,738.00
78414,720.00
78428,739.00
78443,719.00
78457,741.00
78472,734.00
78486,699.00
78501,755.00
78515,729.00
78530,714.00
78545,719.00
78559,749.00
78574,727.00
78588,760.00
78603,740.00
78617,735.00
78632,734.00
78647,763.00
78661,717.00
78676,794.00
78690,733.00
78705,718.00
78719,738.00
78734,736.00
78748,747.00
78763,736.00
78778,761.00
78792,734.00
78807,758.00
78821,690.00
78836,721.00
78850,753.00
78865,737.00
78879,787.00
78894,730.00
78909,730.00
78923,736.00
78938,729.00
78952,711.00
78967,745.00
78981,733.00
78996,716.00
79011,738.00
79025,756.00
79040,740.00
79054,742.00
79069,724.00
79083,725.00
79098,689.00
79112,705.00
79127,723.00
79142,742.00
79156,748.00
79171,746.00
79185,777.00
79200,718.00
79214,747.00
79229,733.00
79243,720.00
79258,733.00
79273,735.00
79287,717.00
79302,792.00
79316,737.00
79331,742.00
79345,755.00
79360,775.00
79375,730.00
79389,739.00
79404,717.00
79418,725.00
79433,757.00
79447,737.00
79462,734.00
79476,746.00
79491,734.00
79506,729.00
79520,739.00
79535,738.00
79549,751.00
79564,740.00
79578,710.00
79593,746.00
79607,732.00
79622,731.00
79637,685.00
79651,752.00
79666,736.00
79680,779.00
79695,702.00
79709,757.00
79724,741.00
79739,735.00
79753,742.00
79768,742.00
79782,743.00
79797,745.00
79811,726.00
79826,730.00
79840,772.00
79855,726.00
79870,711.00
79884,707.00
79899,735.00
79913,702.00
79928,737.00
79942,737.00
79957,735.00
79971,734.00
79986,710.00
80001,725.00
80015,796.00
80030,721.00
80044,733.00
80059,755.00
80073,745.00
80088,744.00
80103,733.00
80117,763.00
80132,737.00
80146,734.00
80161,705.00
80175,770.00
80190,742.00
80204,716.00
80219,733.00
80234,741.00
80248,740.00
80263,766.00
80277,713.00
80292,740.00
80306,746.00
80321,739.00
80335,704.00
80350,741.00
80365,725.00
80379,751.00
80394,737.00
80408,728.00
80423,727.00
80437,734.00
80452,714.00
80467,765.00
80481,772.00
80496,716.00
80510,732.00
80525,793.00
80539,728.00
80554,737.00
80568,743.00
80583,738.00
80598,741.00
80612,693.00
80627,873.00
80641,776.00
80656,739.00
80670,747.00
80685,743.00
80699,739.00
80714,747.00
80729,760.00
80743,714.00
80758,734.00
80772,745.00
80787,715.00
80801,734.00
80816,738.00
80831,733.00
80845,741.00
80860,834.00
80874,750.00
80889,733.00
80903,702.00
80918,722.00
80932,735.00
80947,702.00
80962,738.00
80976,742.00
80991,735.00
81005,749.00
81020,727.00
81034,726.00
81049,744.00
81063,759.00
81078,709.00
81093,739.00
81107,736.00
81122,719.00
81136,745.00
81151,782.00
81165,741.00
81180,731.00
81195,701.00
81209,797.00
81224,769.00
81238,724.00
81253,764.00
81267,735.00
81282,739.00
81296,751.00
81311,768.00
81326,713.00
81340,755.00
81355,741.00
81369,709.00
81384,786.00
81398,734.00
81413,720.00
81427,690.00
81442,741.00
81457,745.00
81471,739.00
81486,717.00
81500,720.00
81515,766.00
81529,717.00
81544,733.00
81559,734.00
81573,739.00
81588,733.00
81602,729.00
81617,729.00
81631,741.00
81646,734.00
81660,712.00
81675,749.00
81690,798.00
81704,715.00
81719,727.00
81733,730.00
81748,754.00
81762,725.00
81777,717.00
81791,745.00
81806,754.00
81821,708.00
81835,717.00
81850,743.00
81864,722.00
81879,740.00
81893,748.00
81908,735.00
81923,744.00
81937,735.00
81952,713.00
81966,748.00
81981,745.00
81995,712.00
82010,755.00
82024,739.00
82039,748.00
82054,736.00
82068,722.00
82083,728.00
82097,739.00
82112,698.00
82126,720.00
82141,761.00
82155,741.00
82170,749.00
82185,748.00
82199,732.00
82214,763.00
82228,729.00
82243,725.00
82257,743.00
82272,738.00
82287,713.00
82301,743.00
82316,724.00
82330,747.00
82345,732.00
82359,736.00
82374,799.00
82388,749.00
82403,701.00
82418,753.00
82432,742.00
82447,732.00
82461,753.00
82476,753.00
82490,727.00
82505,744.00
82519,737.00
82534,726.00
82549,746.00
82563,740.00
82578,708.00
82592,740.00
82607,734.00
82621,728.00
82636,733.00
82651,756.00
82665,730.00
82680,737.00
82694,704.00
82709,727.00
82723,779.00
82738,716.00
82752,723.00
82767,736.00
82782,732.00
82796,803.00
82811,731.00
82825,726.00
82840,775.00
82854,719.00
82869,711.00
82883,735.00
82898,737.00
82913,736.00
82927,740.00
82942,731.00
82956,794.00
82971,729.00
82985,703.00
83000,722.00
83015,739.00
83029,707.00
83044,735.00
83058,579.00
83073,763.00
83087,742.00
83102,718.00
83116,727.00
83131,762.00
83146,749.00
83160,718.00
83175,768.00
83189,741.00
83204,718.00
83218,697.00
83233,766.00
83247,738.00
83262,753.00
83277,724.00
83291,730.00
83306,749.00
83320,707.00
83335,710.00
83349,749.00
83364,736.00
83379,735.00
83393,751.00
83408,742.00
83422,738.00
83437,724.00
83451,708.00
83466,740.00
83480,753.00
83495,707.00
83510,749.00
83524,738.00
83539,731.00
83553,740.00
83568,732.00
83582,745.00
83597,734.00
83611,688.00
83626,720.00
83641,802.00
83655,745.00
83670,741.00
83684,776.00
83699,727.00
83713,731.00
83728,738.00
83743,780.00
83757,737.00
83772,738.00
83786,714.00
83801,741.00
83815,727.00
83830,732.00
83844,747.00
83859,738.00
83874,732.00
83888,729.00
83903,708.00
83917,724.00
83932,737.00
83946,729.00
83961,735.00
83975,748.00
83990,743.00
84005,737.00
84019,729.00
84034,734.00
84048,756.00
84063,728.00
84077,707.00
84092,759.00
84107,741.00
84121,722.00
84136,740.00
84150,731.00
84165,738.00
84179,724.00
84194,715.00
84208,743.00
84223,738.00
84238,711.00
84252,761.00
84267,784.00
84281,739.00
84296,739.00
84310,727.00
84325,731.00
84339,750.00
84354,742.00
84369,703.00
84383,736.00
84398,734.00
84412,715.00
84427,738.00
84441,737.00
84456,747.00
84471,737.00
84485,691.00
84500,715.00
84514,735.00
84529,707.00
84543,717.00
84558,734.00
84572,725.00
84587,729.00
84602,746.00
84616,726.00
84631,736.00
84645,741.00
84660,713.00
84674,739.00
84689,747.00
84703,709.00
84718,734.00
84733,728.00
84747,741.00
84762,731.00
84776,721.00
84791,718.00
84805,747.00
84820,703.00
84835,723.00
84849,741.00
84864,733.00
84878,747.00
84893,752.00
84907,737.00
84922,741.00
84936,725.00
84951,712.00
84966,725.00
84980,733.00
84995,713.00
85009,754.00
85024,780.00
85038,734.00
85053,734.00
85067,739.00
85082,732.00
85097,770.00
85111,703.00
85126,724.00
85140,750.00
85155,739.00
85169,770.00
85184,739.00
85199,737.00
85213,739.00
85228,734.00
85242,727.00
85257,802.00
85271,751.00
85286,713.00
85300,761.00
85315,742.00
85330,736.00
85344,747.00
85359,746.00
85373,745.00
85388,741.00
85402,707.00
85417,730.00
85431,756.00
85446,724.00
85461,755.00
85475,742.00
85490,732.00
85504,750.00
85519,737.00
85533,758.00
85548,770.00
85563,739.00
85577,700.00
85592,746.00
85606,746.00
85621,717.00
85635,720.00
85650,736.00
85664,739.00
85679,737.00
85694,711.00
85708,730.00
85723,799.00
85737,711.00
85752,730.00
85766,726.00
85781,733.00
85795,739.00
85810,736.00
85825,735.00
85839,692.00
85854,634.00
85868,719.00
85883,738.00
85897,769.00
85912,719.00
85927,734.00
85941,736.00
85956,759.00
85970,751.00
85985,697.00
85999,713.00
86014,748.00
86028,721.00
86043,716.00
86058,738.00
86072,744.00
86087,758.00
86101,725.00
86116,726.00
86130,728.00
86145,728.00
86159,713.00
86174,747.00
86189,738.00
86203,716.00
86218,754.00
86232,748.00
86247,739.00
86261,752.00
86276,736.00
86291,734.00
86305,741.00
86320,716.00
86334,715.00
86349,739.00
86363,732.00
86378,747.00
86392,783.00
86407,732.00
86422,742.00
86436,746.00
86451,708.00
86465,751.00
86480,732.00
86494,712.00
86509,736.00
86523,716.00
86538,734.00
86553,748.00
86567,731.00
86582,752.00
86596,726.00
86611,703.00
86625,735.00
86640,754.00
86655,780.00
86669,745.00
86684,730.00
86698,733.00
86713,789.00
86727,726.00
86742,725.00
86756,767.00
86771,740.00
86786,711.00
86800,749.00
86815,750.00
86829,708.00
86844,463.00
86858,740.00
86873,738.00
86887,746.00
86902,723.00
86917,734.00
86931,745.00
86946,730.00
86960,736.00
86975,810.00
86989,742.00
87004,735.00
87019,750.00
87033,728.00
87048,741.00
87062,731.00
87077,707.00
87091,781.00
87106,738.00
87120,717.00
87135,719.00
87150,722.00
87164,736.00
87179,720.00
87193,702.00
87208,731.00
87222,748.00
87237,711.00
87251,719.00
87266,370.00
87281,727.00
87295,748.00
87310,726.00
87324,730.00
87339,744.00
87353,732.00
87368,707.00
87383,732.00
87397,788.00
87412,715.00
87426,740.00
87441,745.00
87455,739.00
87470,746.00
87484,716.00
87499,719.00
87514,734.00
87528,744.00
87543,713.00
87557,741.00
87572,750.00
87586,744.00
87601,744.00
87615,728.00
87630,730.00
87645,730.00
87659,757.00
87674,738.00
87688,738.00
87703,704.00
87717,740.00
87732,754.00
87747,746.00
87761,725.00
87776,734.00
87790,463.00
87805,775.00
87819,703.00
87834,727.00
87848,733.00
87863,734.00
87878,743.00
87892,735.00
87907,756.00
87921,738.00
87936,726.00
87950,722.00
87965,747.00
87979,728.00
87994,726.00
88009,767.00
88023,747.00
88038,722.00
88052,796.00
88067,739.00
88081,726.00
88096,728.00
88111,698.00
88125,728.00
88140,735.00
88154,713.00
88169,729.00
88183,711.00
88198,738.00
88212,750.00
88227,731.00
88242,724.00
88256,746.00
88271,737.00
88285,713.00
88300,738.00
88314,733.00
88329,744.00
88343,713.00
88358,777.00
88373,738.00
88387,733.00
88402,704.00
88416,722.00
88431,755.00
88445,708.00
88460,725.00
88475,393.00
88489,748.00
88504,741.00
88518,742.00
88533,728.00
88547,735.00
88562,740.00
88576,752.00
88591,770.00
88606,744.00
88620,715.00
88635,745.00
88649,742.00
88664,738.00
88678,724.00
88693,711.00
88707,576.00
88722,746.00
88737,706.00
88751,744.00
88766,742.00
88780,735.00
88795,748.00
88809,731.00
88824,729.00
88839,744.00
88853,737.00
88868,719.00
88882,656.00
88897,747.00
88911,715.00
88926,742.00
88940,740.00
88955,753.00
88970,736.00
88984,725.00
88999,732.00
89013,745.00
89028,710.00
89042,724.00
89057,738.00
89071,755.00
89086,745.00
89101,738.00
89115,736.00
89130,743.00
89144,724.00
89159,720.00
89173,741.00
89188,754.00
89203,713.00
89217,727.00
89232,726.00
89246,724.00
89261,741.00
89275,751.00
89290,738.00
89304,743.00
89319,707.00
89334,727.00
89348,743.00
89363,735.00
89377,756.00
89392,742.00
89406,766.00
89421,750.00
89435,732.00
89450,762.00
89465,744.00
89479,740.00
89494,709.00
89508,746.00
89523,746.00
89537,725.00
89552,695.00
89567,737.00
89581,737.00
89596,730.00
89610,711.00
89625,730.00
89639,727.00
89654,708.00
89668,740.00
89683,733.00
89698,731.00
89712,753.00
89727,744.00
89741,720.00
89756,742.00
89770,731.00
89785,709.00
89799,742.00
89814,746.00
89829,709.00
89843,751.00
89858,746.00
89872,739.00
89887,726.00
89901,705.00
89916,718.00
89931,739.00
89945,707.00
89960,753.00
89974,788.00
89989,738.00
90003,742.00
90018,745.00
90032,728.00
90047,732.00
90062,729.00
90076,717.00
90091,737.00
90105,742.00
90120,715.00
90134,738.00
90149,813.00
90163,733.00
90178,747.00
90193,724.00
90207,623.00
90222,760.00
90236,702.00
90251,725.00
90265,739.00
90280,734.00
90295,743.00
90309,766.00
90324,741.00
90338,742.00
90353,734.00
90367,700.00
90382,729.00
90396,765.00
90411,711.00
90426,747.00
90440,720.00
90455,737.00
90469,737.00
90484,729.00
90498,733.00
90513,750.00
90527,700.00
90542,736.00
90557,733.00
90571,758.00
90586,761.00
90600,760.00
90615,727.00
90629,737.00
90644,784.00
90659,725.00
90673,750.00
90688,729.00
90702,705.00
90717,736.00
90731,622.00
90746,727.00
90760,739.00
90775,791.00
90790,730.00
90804,735.00
90819,690.00
90833,751.00
90848,735.00
90862,718.00
90877,752.00
90891,729.00
90906,733.00
90921,755.00
90935,721.00
90950,719.00
90964,712.00
90979,741.00
90993,706.00
91008,736.00
91023,737.00
91037,714.00
91052,733.00
91066,757.00
91081,741.00
91095,734.00
91110,703.00
91124,728.00
91139,748.00
91154,705.00
91168,724.00
91183,728.00
91197,734.00
91212,717.00
91226,748.00
91241,726.00
91255,741.00
91270,770.00
91285,711.00
91299,733.00
91314,738.00
91328,721.00
91343,735.00
91357,740.00
91372,735.00
91387,734.00
91401,731.00
91416,733.00
91430,728.00
91445,710.00
91459,717.00
91474,740.00
91488,736.00
91503,724.00
91518,736.00
91532,766.00
91547,740.00
91561,734.00
91576,717.00
91590,742.00
91605,739.00
91619,712.00
91634,727.00
91649,743.00
91663,739.00
91678,735.00
91692,748.00
91707,731.00
91721,767.00
91736,703.00
91751,722.00
91765,746.00
91780,731.00
91794,734.00
91809,737.00
91823,719.00
91838,740.00
91852,716.00
91867,715.00
91882,752.00
91896,745.00
91911,707.00
91925,747.00
91940,728.00
91954,743.00
91969,754.00
91983,769.00
91998,747.00
92013,742.00
92027,693.00
92042,725.00
92056,747.00
92071,727.00
92085,765.00
92100,738.00
92115,770.00
92129,733.00
92144,734.00
92158,714.00
92173,743.00
92187,728.00
92202,709.00
92216,770.00
92231,738.00
92246,738.00
92260,738.00
92275,729.00
92289,758.00
92304,734.00
92318,708.00
92333,726.00
92347,737.00
92362,707.00
92377,799.00
92391,793.00
92406,732.00
92420,768.00
92435,734.00
92449,768.00
92464,738.00
92479,751.00
92493,707.00
92508,746.00
92522,743.00
92537,774.00
92551,746.00
92566,738.00
92580,736.00
92595,736.00
92610,716.00
92624,733.00
92639,727.00
92653,708.00
92668,656.00
92682,744.00
92697,733.00
92711,757.00
92726,738.00
92741,738.00
92755,748.00
92770,724.00
92784,719.00
92799,741.00
92813,724.00
92828,710.00
92843,782.00
92857,738.00
92872,739.00
92886,730.00
92901,727.00
92915,725.00
92930,758.00
92944,697.00
92959,710.00
92974,726.00
92988,732.00
93003,743.00
93017,740.00
93032,715.00
93046,732.00
93061,802.00
93075,717.00
93090,731.00
93105,724.00
93119,714.00
93134,702.00
93148,743.00
93163,720.00
93177,746.00
93192,799.00
93207,756.00
93221,737.00
93236,690.00
93250,732.00
93265,733.00
93279,723.00
93294,775.00
93308,753.00
93323,749.00
93338,747.00
93352,733.00
93367,714.00
93381,741.00
93396,736.00
93410,710.00
93425,749.00
93439,792.00
93454,718.00
93469,743.00
93483,734.00
93498,724.00
93512,737.00
93527,708.00
93541,734.00
93556,750.00
93571,708.00
93585,754.00
93600,743.00
93614,734.00
93629,757.00
93643,756.00
93658,730.00
93672,742.00
93687,743.00
93702,710.00
93716,724.00
93731,742.00
93745,710.00
93760,755.00
93774,737.00
93789,735.00
93803,730.00
93818,717.00
93833,739.00
93847,737.00
93862,730.00
93876,760.00
93891,733.00
93905,759.00
93920,756.00
93935,748.00
93949,746.00
93964,746.00
93978,740.00
93993,718.00
94007,726.00
94022,730.00
94036,711.00
94051,742.00
94066,732.00
94080,718.00
94095,735.00
94109,741.00
94124,733.00
94138,758.00
94153,710.00
94167,719.00
94182,745.00
94197,735.00
94211,760.00
94226,731.00
94240,709.00
94255,734.00
94269,734.00
94284,703.00
94299,832.00
94313,733.00
94328,706.00
94342,729.00
94357,740.00
94371,808.00
94386,761.00
94400,741.00
94415,717.00
94430,730.00
94444,707.00
94459,743.00
94473,727.00
94488,720.00
94502,742.00
94517,735.00
94531,729.00
94546,720.00
94561,732.00
94575,756.00
94590,744.00
94604,725.00
94619,711.00
94633,793.00
94648,741.00
94663,714.00
94677,726.00
94692,734.00
94706,744.00
94721,734.00
94735,706.00
94750,726.00
94764,763.00
94779,709.00
94794,726.00
94808,750.00
94823,733.00
94837,747.00
94852,732.00
94866,717.00
94881,741.00
94895,719.00
94910,707.00
94925,737.00
94939,747.00
94954,715.00
94968,752.00
94983,735.00
94997,739.00
95012,729.00
95027,727.00
95041,731.00
95056,856.00
95070,698.00
95085,714.00
95099,761.00
95114,734.00
95128,744.00
95143,725.00
95158,724.00
95172,738.00
95187,724.00
95201,717.00
95216,757.00
95230,738.00
95245,784.00
95259,745.00
95274,734.00
95289,736.00
95303,728.00
95318,735.00
95332,732.00
95347,745.00
95361,705.00
95376,772.00
95391,752.00
95405,728.00
95420,728.00
95434,732.00
95449,727.00
95463,734.00
95478,744.00
95492,742.00
95507,791.00
95522,734.00
95536,740.00
95551,726.00
95565,733.00
95580,734.00
95594,732.00
95609,737.00
95623,744.00
95638,739.00
95653,701.00
95667,703.00
95682,730.00
95696,659.00
95711,765.00
95725,739.00
95740,728.00
95755,743.00
95769,743.00
95784,727.00
95798,742.00
95813,731.00
95827,730.00
95842,744.00
95856,738.00
95871,716.00
95886,738.00
95900,758.00
95915,724.00
95929,735.00
95944,701.00
95958,724.00
95973,729.00
95987,669.00
96002,724.00
96017,731.00
96031,734.00
96046,737.00
96060,713.00
96075,721.00
96089,733.00
96104,723.00
96119,724.00
96133,731.00
96148,758.00
96162,706.00
96177,731.00
96191,746.00
96206,733.00
96220,734.00
96235,712.00
96250,719.00
96264,735.00
96279,701.00
96293,713.00
96308,738.00
96322,736.00
96337,743.00
96351,732.00
96366,728.00
96381,703.00
96395,734.00
96410,714.00
96424,737.00
96439,747.00
96453,711.00
96468,753.00
96483,740.00
96497,735.00
96512,740.00
96526,734.00
96541,733.00
96555,735.00
96570,693.00
96584,724.00
96599,735.00
96614,732.00
96628,741.00
96643,735.00
96657,652.00
96672,759.00
96686,717.00
96701,731.00
96715,743.00
96730,760.00
96745,710.00
96759,752.00
96774,742.00
96788,735.00
96803,743.00
96817,752.00
96832,730.00
96847,735.00
96861,704.00
96876,728.00
96890,767.00
96905,718.00
96919,757.00
96934,745.00
96948,748.00
96963,745.00
96978,741.00
96992,728.00
97007,797.00
97021,732.00
97036,707.00
97050,762.00
97065,740.00
97079,720.00
97094,739.00
97109,743.00
97123,742.00
97138,725.00
97152,707.00
97167,745.00
97181,753.00
97196,707.00
97211,737.00
97225,745.00
97240,745.00
97254,744.00
97269,729.00
97283,733.00
97298,722.00
97312,728.00
97327,713.00
97342,738.00
97356,744.00
97371,715.00
97385,739.00
97400,737.00
97414,741.00
97429,722.00
97443,749.00
97458,731.00
97473,773.00
97487,707.00
97502,726.00
97516,747.00
97531,737.00
97545,746.00
97560,736.00
97575,734.00
97589,763.00
97604,732.00
97618,765.00
97633,763.00
97647,737.00
97662,712.00
97676,741.00
97691,736.00
97706,733.00
97720,754.00
97735,780.00
97749,733.00
97764,749.00
97778,701.00
97793,738.00
97807,752.00
97822,734.00
97837,749.00
97851,753.00
97866,731.00
97880,723.00
97895,763.00
97909,354.00
97924,714.00
97939,737.00
97953,716.00
97968,742.00
97982,765.00
97997,730.00
98011,754.00
98026,741.00
98040,764.00
98055,737.00
98070,649.00
98084,712.00
98099,737.00
98113,729.00
98128,739.00
98142,738.00
98157,734.00
98171,733.00
98186,735.00
98201,708.00
98215,747.00
98230,654.00
98244,706.00
98259,743.00
98273,738.00
98288,716.00
98303,738.00
98317,739.00
98332,772.00
98346,752.00
98361,757.00
98375,732.00
98390,741.00
98404,715.00
98419,717.00
98434,719.00
98448,736.00
98463,737.00
98477,735.00
98492,726.00
98506,741.00
98521,750.00
98535,715.00
98550,744.00
98565,716.00
98579,714.00
98594,742.00
98608,735.00
98623,756.00
98637,734.00
98652,730.00
98667,737.00
98681,436.00
98696,692.00
98710,719.00
98725,764.00
98739,739.00
98754,746.00
98768,740.00
98783,724.00
98798,745.00
98812,741.00
98827,718.00
98841,714.00
98856,741.00
98870,709.00
98885,768.00
98899,739.00
98914,737.00
98929,739.00
98943,738.00
98958,736.00
98972,751.00
98987,698.00
99001,719.00
99016,737.00
99031,729.00
99045,749.00
99060,740.00
99074,735.00
99089,744.00
99103,744.00
99118,728.00
99132,742.00
99147,729.00
99162,708.00
99176,892.00
99191,738.00
99205,725.00
99220,734.00
99234,738.00
99249,730.00
99263,738.00
99278,694.00
99293,728.00
99307,748.00
99322,720.00
99336,730.00
99351,741.00
99365,747.00
99380,743.00
99395,731.00
99409,732.00
99424,754.00
99438,759.00
99453,519.00
99467,723.00
99482,739.00
99496,741.00
99511,742.00
99526,745.00
99540,734.00
99555,731.00
99569,708.00
99584,758.00
99598,755.00
99613,791.00
99627,754.00
99642,740.00
99657,722.00
99671,745.00
99686,736.00
99700,725.00
99715,747.00
99729,743.00
99744,742.00
99759,748.00
99773,737.00
99788,710.00
99802,735.00
99817,743.00
99831,737.00
99846,730.00
99860,726.00
99875,754.00
99890,743.00
99904,712.00
99919,725.00
99933,736.00
99948,734.00
99962,744.00
99977,722.00
99991,732.00
100006,736.00
100022,736.00
100037,705.00
100053,753.00
100068,742.00
100084,734.00
100100,766.00
100115,717.00
100131,742.00
100146,733.00
100162,706.00
100178,738.00
100193,732.00
100209,730.00
100224,245.00
100240,758.00
100256,725.00
100271,723.00
100287,706.00
100302,777.00
100318,742.00
100334,745.00
100349,745.00
100365,733.00
100380,738.00
100396,728.00
100412,709.00
100427,738.00
100443,758.00
100458,730.00
100474,744.00
100490,737.00
100505,730.00
100521,723.00
100536,709.00
100552,735.00
100568,735.00
100583,747.00
100599,751.00
100614,747.00
100630,750.00
100646,737.00
100661,705.00
100677,740.00
100692,740.00
100708,724.00
100724,741.00
100739,729.00
100755,743.00
100770,774.00
100786,696.00
100802,794.00
100817,732.00
100833,736.00
100848,744.00
100864,771.00
100880,711.00
100895,744.00
100911,705.00
100926,738.00
100942,735.00
100958,733.00
100973,740.00
100989,720.00
101004,737.00
101020,730.00
101036,735.00
101051,814.00
101067,735.00
101082,787.00
101098,740.00
101114,720.00
101129,769.00
101145,726.00
101160,713.00
101176,745.00
101192,740.00
101207,735.00
101223,738.00
101238,708.00
101254,738.00
101270,735.00
101285,793.00
101301,747.00
101316,736.00
101332,740.00
101348,754.00
101363,700.00
101379,755.00
101394,765.00
101410,717.00
101426,745.00
101441,741.00
101457,743.00
101472,750.00
101488,697.00
101504,740.00
101519,736.00
101535,724.00
101550,733.00
101566,744.00
101582,738.00
101597,736.00
101613,701.00
101628,736.00
101644,717.00
101660,742.00
101675,769.00
101691,737.00
101706,742.00
101722,743.00
101738,699.00
101753,741.00
101769,739.00
101784,735.00
101800,742.00
101816,739.00
101831,768.00
101847,730.00
101862,703.00
101878,716.00
101894,740.00
101909,707.00
101925,759.00
101940,743.00
101956,748.00